File Dati SpectraSuite
++++++++++++++++++++++++++++++++++++
Data: Tue Feb 26 17:18:19 CET 2019
Utente: Studente
Spettro Scuro Presente: Si
Spettro di Riferimento Presente: Si
Numero di Componenti Spettri Campionati: 1
Spettrometri: USB4F01341
Tempo di integrazione (usec): 4000 (USB4F01341)
Media Spettri: 200 (USB4F01341)
Appiattimento Boxcar: 0 (USB4F01341)
Correggi Oscurità Elettronica: No (USB4F01341)
Strobo/Lampada Abilitato: No (USB4F01341)
Correct for Detector Non-linearity: No (USB4F01341)
Correggi Stray Light: No (USB4F01341)
Numero di Pixel nello Spettro Elaborato: 3648
>>>>>Comincia Dati dello Spettro Elaborati<<<<<
0,00	58,428
1,00	58,428
2,00	58,428
3,00	-40,913
4,00	17,806
5,00	35,103
6,00	-31,277
7,00	-203,394
8,00	34,802
9,00	512,667
10,00	-159,000
11,00	133,608
12,00	-30,216
13,00	63,516
14,00	-132,037
15,00	280,727
16,00	-1,967
17,00	78,538
18,00	-13,988
19,00	3,002
20,00	-1,213
21,00	4,086
22,00	4,786
23,00	8,773
24,00	14,192
25,00	6,268
26,00	-2,405
27,00	-0,360
28,00	-2,410
29,00	-3,369
30,00	2,808
31,00	6,833
32,00	8,084
33,00	2,168
34,00	9,326
35,00	-4,472
36,00	6,096
37,00	2,732
38,00	5,449
39,00	-1,577
40,00	-2,155
41,00	2,607
42,00	-4,320
43,00	-1,217
44,00	7,165
45,00	2,426
46,00	1,358
47,00	7,479
48,00	4,530
49,00	2,512
50,00	3,063
51,00	8,808
52,00	3,414
53,00	3,078
54,00	6,131
55,00	3,809
56,00	4,407
57,00	-4,887
58,00	4,182
59,00	2,079
60,00	8,415
61,00	3,534
62,00	-3,532
63,00	-0,643
64,00	1,245
65,00	0,969
66,00	4,148
67,00	2,876
68,00	6,070
69,00	2,824
70,00	4,791
71,00	2,114
72,00	6,359
73,00	-0,038
74,00	1,989
75,00	1,986
76,00	4,018
77,00	3,152
78,00	4,389
79,00	3,667
80,00	-3,748
81,00	0,169
82,00	-0,480
83,00	1,750
84,00	4,262
85,00	-0,914
86,00	5,096
87,00	1,635
88,00	3,520
89,00	7,603
90,00	1,954
91,00	3,298
92,00	5,258
93,00	5,379
94,00	3,447
95,00	-0,540
96,00	2,860
97,00	2,208
98,00	-0,009
99,00	2,360
100,00	4,502
101,00	0,205
102,00	2,387
103,00	0,535
104,00	-0,090
105,00	1,874
106,00	0,855
107,00	2,172
108,00	0,377
109,00	1,404
110,00	1,986
111,00	1,468
112,00	0,755
113,00	-0,390
114,00	1,718
115,00	2,286
116,00	4,533
117,00	-0,467
118,00	-0,242
119,00	0,065
120,00	0,321
121,00	0,638
122,00	0,616
123,00	-1,022
124,00	0,832
125,00	4,076
126,00	0,521
127,00	-0,686
128,00	1,164
129,00	0,477
130,00	1,650
131,00	0,715
132,00	0,953
133,00	1,867
134,00	-1,268
135,00	0,902
136,00	-0,548
137,00	2,150
138,00	2,143
139,00	-0,749
140,00	2,211
141,00	-0,380
142,00	0,287
143,00	-0,029
144,00	2,307
145,00	-0,041
146,00	0,452
147,00	1,738
148,00	-0,144
149,00	1,408
150,00	0,918
151,00	2,007
152,00	-1,196
153,00	0,980
154,00	1,598
155,00	2,408
156,00	1,652
157,00	-1,012
158,00	-0,105
159,00	-0,602
160,00	1,615
161,00	1,788
162,00	0,602
163,00	1,336
164,00	0,437
165,00	1,299
166,00	2,251
167,00	1,114
168,00	1,798
169,00	-0,869
170,00	1,556
171,00	0,715
172,00	-1,037
173,00	0,349
174,00	-0,463
175,00	2,286
176,00	-1,352
177,00	2,425
178,00	-0,681
179,00	1,877
180,00	1,248
181,00	-0,292
182,00	1,141
183,00	2,603
184,00	0,016
185,00	0,867
186,00	1,243
187,00	1,296
188,00	0,528
189,00	0,376
190,00	0,567
191,00	-0,093
192,00	0,163
193,00	1,325
194,00	1,229
195,00	0,213
196,00	0,743
197,00	0,454
198,00	0,823
199,00	0,818
200,00	0,028
201,00	0,090
202,00	0,445
203,00	-0,206
204,00	0,651
205,00	1,077
206,00	-0,071
207,00	0,134
208,00	0,626
209,00	1,547
210,00	0,160
211,00	0,824
212,00	-1,249
213,00	0,712
214,00	1,325
215,00	1,371
216,00	0,804
217,00	-0,167
218,00	0,492
219,00	0,199
220,00	0,023
221,00	0,629
222,00	0,856
223,00	0,030
224,00	0,522
225,00	-0,461
226,00	0,413
227,00	1,122
228,00	0,253
229,00	0,947
230,00	1,035
231,00	0,355
232,00	0,299
233,00	0,626
234,00	0,878
235,00	0,604
236,00	0,248
237,00	0,340
238,00	0,226
239,00	0,066
240,00	0,804
241,00	1,010
242,00	1,073
243,00	0,378
244,00	-0,035
245,00	0,710
246,00	1,506
247,00	0,382
248,00	0,737
249,00	1,564
250,00	1,326
251,00	0,934
252,00	0,808
253,00	0,619
254,00	0,282
255,00	0,838
256,00	0,365
257,00	0,071
258,00	0,757
259,00	0,694
260,00	0,655
261,00	0,842
262,00	0,047
263,00	0,224
264,00	1,132
265,00	0,191
266,00	0,324
267,00	0,585
268,00	-0,553
269,00	-0,076
270,00	-0,392
271,00	-0,387
272,00	-0,883
273,00	0,463
274,00	-0,188
275,00	-0,132
276,00	-0,082
277,00	1,321
278,00	0,818
279,00	0,262
280,00	0,557
281,00	0,574
282,00	0,545
283,00	0,355
284,00	-0,024
285,00	0,103
286,00	-0,584
287,00	-0,018
288,00	0,385
289,00	0,465
290,00	0,271
291,00	1,021
292,00	0,190
293,00	0,771
294,00	0,219
295,00	0,304
296,00	0,100
297,00	-0,007
298,00	0,491
299,00	0,755
300,00	-0,158
301,00	0,240
302,00	0,047
303,00	0,468
304,00	0,332
305,00	0,212
306,00	0,169
307,00	0,759
308,00	0,270
309,00	0,101
310,00	0,071
311,00	0,770
312,00	0,241
313,00	0,216
314,00	-0,480
315,00	0,466
316,00	0,491
317,00	-0,030
318,00	-0,097
319,00	0,157
320,00	0,617
321,00	-0,206
322,00	0,192
323,00	0,801
324,00	0,204
325,00	0,399
326,00	0,209
327,00	0,071
328,00	0,282
329,00	0,216
330,00	-0,235
331,00	0,602
332,00	-0,133
333,00	0,467
334,00	0,377
335,00	0,514
336,00	0,287
337,00	0,421
338,00	0,636
339,00	-0,291
340,00	0,150
341,00	0,312
342,00	0,206
343,00	0,622
344,00	0,510
345,00	0,323
346,00	-0,029
347,00	0,986
348,00	0,369
349,00	0,347
350,00	0,252
351,00	0,152
352,00	0,108
353,00	0,551
354,00	0,421
355,00	0,538
356,00	0,379
357,00	0,211
358,00	0,222
359,00	0,221
360,00	-0,149
361,00	-0,018
362,00	0,044
363,00	0,573
364,00	0,070
365,00	0,142
366,00	0,021
367,00	0,490
368,00	0,152
369,00	0,463
370,00	0,381
371,00	0,159
372,00	0,067
373,00	0,404
374,00	0,419
375,00	0,216
376,00	0,026
377,00	0,285
378,00	0,032
379,00	0,336
380,00	0,121
381,00	0,350
382,00	0,117
383,00	-0,206
384,00	0,393
385,00	-0,023
386,00	-0,005
387,00	-0,095
388,00	0,297
389,00	0,548
390,00	0,053
391,00	-0,004
392,00	0,307
393,00	0,093
394,00	0,236
395,00	0,413
396,00	0,533
397,00	0,408
398,00	0,247
399,00	0,190
400,00	0,266
401,00	0,359
402,00	-0,123
403,00	0,153
404,00	0,178
405,00	-0,012
406,00	0,356
407,00	0,277
408,00	0,157
409,00	0,140
410,00	0,104
411,00	0,258
412,00	0,050
413,00	0,128
414,00	0,045
415,00	0,154
416,00	0,026
417,00	0,487
418,00	0,260
419,00	0,440
420,00	0,327
421,00	0,054
422,00	0,028
423,00	0,135
424,00	0,277
425,00	0,186
426,00	-0,131
427,00	0,084
428,00	-0,166
429,00	-0,053
430,00	-0,067
431,00	0,200
432,00	-0,045
433,00	0,126
434,00	0,321
435,00	0,058
436,00	0,274
437,00	0,268
438,00	0,088
439,00	0,048
440,00	-0,105
441,00	0,063
442,00	0,397
443,00	0,313
444,00	-0,056
445,00	0,136
446,00	-0,093
447,00	-0,054
448,00	0,069
449,00	-0,165
450,00	-0,051
451,00	0,069
452,00	0,036
453,00	0,023
454,00	0,017
455,00	-0,102
456,00	0,119
457,00	0,254
458,00	0,135
459,00	0,222
460,00	0,242
461,00	0,028
462,00	0,155
463,00	0,232
464,00	0,045
465,00	0,144
466,00	0,171
467,00	0,080
468,00	0,128
469,00	0,128
470,00	0,146
471,00	-0,023
472,00	0,194
473,00	0,067
474,00	0,159
475,00	0,058
476,00	0,089
477,00	0,274
478,00	0,115
479,00	0,074
480,00	-0,011
481,00	0,112
482,00	0,100
483,00	-0,133
484,00	-0,047
485,00	0,087
486,00	0,214
487,00	0,101
488,00	0,050
489,00	-0,162
490,00	0,174
491,00	-0,032
492,00	0,174
493,00	0,116
494,00	0,397
495,00	0,208
496,00	0,167
497,00	0,117
498,00	0,151
499,00	0,011
500,00	0,028
501,00	0,102
502,00	0,021
503,00	0,183
504,00	-0,139
505,00	-0,004
506,00	0,008
507,00	-0,087
508,00	0,031
509,00	0,058
510,00	0,204
511,00	0,184
512,00	0,033
513,00	-0,064
514,00	0,044
515,00	0,090
516,00	0,209
517,00	0,132
518,00	-0,072
519,00	0,125
520,00	0,096
521,00	-0,065
522,00	0,012
523,00	0,040
524,00	-0,011
525,00	0,054
526,00	0,080
527,00	0,095
528,00	0,017
529,00	0,039
530,00	0,172
531,00	-0,080
532,00	0,044
533,00	0,128
534,00	0,067
535,00	0,285
536,00	-0,003
537,00	0,164
538,00	0,272
539,00	0,109
540,00	0,067
541,00	0,009
542,00	0,048
543,00	0,170
544,00	0,026
545,00	0,118
546,00	0,003
547,00	0,118
548,00	0,158
549,00	0,095
550,00	-0,044
551,00	0,258
552,00	0,082
553,00	0,079
554,00	0,004
555,00	0,002
556,00	-0,024
557,00	-0,015
558,00	-0,008
559,00	0,065
560,00	-0,017
561,00	0,048
562,00	0,225
563,00	0,036
564,00	0,096
565,00	-0,019
566,00	0,172
567,00	0,064
568,00	0,043
569,00	0,053
570,00	0,030
571,00	0,051
572,00	0,028
573,00	0,036
574,00	0,004
575,00	0,005
576,00	0,082
577,00	-0,053
578,00	0,155
579,00	0,067
580,00	0,130
581,00	0,079
582,00	0,172
583,00	0,097
584,00	0,027
585,00	0,105
586,00	0,132
587,00	0,103
588,00	0,080
589,00	-0,026
590,00	0,103
591,00	0,036
592,00	0,045
593,00	0,193
594,00	0,035
595,00	0,081
596,00	0,052
597,00	0,069
598,00	-0,008
599,00	0,047
600,00	0,041
601,00	-0,054
602,00	-0,024
603,00	-0,046
604,00	-0,009
605,00	0,040
606,00	0,043
607,00	-0,016
608,00	0,012
609,00	0,090
610,00	0,027
611,00	0,044
612,00	-0,029
613,00	0,073
614,00	-0,051
615,00	0,071
616,00	0,015
617,00	0,052
618,00	-0,085
619,00	0,115
620,00	0,005
621,00	-0,022
622,00	-0,046
623,00	0,052
624,00	0,120
625,00	0,085
626,00	0,027
627,00	-0,022
628,00	0,072
629,00	0,006
630,00	0,016
631,00	-0,068
632,00	-0,005
633,00	0,096
634,00	0,145
635,00	0,019
636,00	0,061
637,00	0,061
638,00	-0,020
639,00	0,026
640,00	0,045
641,00	0,076
642,00	0,081
643,00	-0,021
644,00	0,019
645,00	0,050
646,00	0,001
647,00	0,014
648,00	0,019
649,00	0,004
650,00	-0,006
651,00	0,047
652,00	-0,021
653,00	-0,045
654,00	0,021
655,00	0,071
656,00	0,023
657,00	0,024
658,00	0,005
659,00	-0,039
660,00	0,035
661,00	0,022
662,00	-0,001
663,00	0,010
664,00	0,019
665,00	0,048
666,00	0,029
667,00	-0,003
668,00	0,004
669,00	0,026
670,00	0,018
671,00	0,036
672,00	0,029
673,00	0,035
674,00	0,003
675,00	0,037
676,00	0,036
677,00	0,042
678,00	0,040
679,00	0,032
680,00	-0,008
681,00	0,024
682,00	0,042
683,00	0,053
684,00	-0,003
685,00	0,034
686,00	0,067
687,00	0,002
688,00	0,029
689,00	-0,017
690,00	0,028
691,00	0,017
692,00	0,012
693,00	0,018
694,00	0,028
695,00	-0,017
696,00	0,035
697,00	0,005
698,00	0,019
699,00	-0,011
700,00	0,012
701,00	0,023
702,00	0,027
703,00	-0,006
704,00	0,013
705,00	0,006
706,00	-0,002
707,00	-0,002
708,00	0,004
709,00	0,039
710,00	-0,017
711,00	0,038
712,00	0,006
713,00	-0,010
714,00	0,005
715,00	-0,020
716,00	0,012
717,00	0,026
718,00	0,004
719,00	-0,000
720,00	0,024
721,00	0,023
722,00	0,019
723,00	0,042
724,00	0,001
725,00	0,007
726,00	0,008
727,00	-0,015
728,00	-0,027
729,00	0,002
730,00	0,037
731,00	0,010
732,00	-0,007
733,00	0,031
734,00	0,018
735,00	-0,005
736,00	0,018
737,00	0,025
738,00	-0,009
739,00	0,025
740,00	0,027
741,00	0,016
742,00	-0,016
743,00	0,001
744,00	0,025
745,00	0,040
746,00	-0,009
747,00	0,025
748,00	-0,015
749,00	0,009
750,00	0,011
751,00	-0,002
752,00	0,015
753,00	0,044
754,00	0,005
755,00	0,000
756,00	0,035
757,00	-0,012
758,00	0,005
759,00	-0,013
760,00	0,017
761,00	0,033
762,00	0,008
763,00	0,006
764,00	0,008
765,00	0,009
766,00	0,018
767,00	0,020
768,00	0,026
769,00	-0,006
770,00	0,013
771,00	0,025
772,00	0,014
773,00	0,005
774,00	-0,005
775,00	0,022
776,00	-0,002
777,00	0,014
778,00	0,033
779,00	0,045
780,00	0,035
781,00	-0,012
782,00	0,018
783,00	0,002
784,00	-0,004
785,00	0,027
786,00	-0,009
787,00	0,010
788,00	0,009
789,00	-0,002
790,00	0,013
791,00	0,006
792,00	-0,015
793,00	-0,006
794,00	-0,017
795,00	0,005
796,00	0,011
797,00	0,004
798,00	0,001
799,00	0,018
800,00	0,011
801,00	0,026
802,00	0,020
803,00	0,013
804,00	-0,000
805,00	0,010
806,00	0,005
807,00	0,022
808,00	0,013
809,00	0,011
810,00	0,014
811,00	-0,017
812,00	-0,013
813,00	0,022
814,00	0,045
815,00	0,034
816,00	0,017
817,00	0,018
818,00	0,025
819,00	0,027
820,00	-0,001
821,00	0,003
822,00	-0,021
823,00	0,007
824,00	-0,016
825,00	0,021
826,00	0,026
827,00	0,009
828,00	0,003
829,00	0,027
830,00	-0,002
831,00	0,006
832,00	0,004
833,00	0,020
834,00	0,010
835,00	0,006
836,00	0,013
837,00	-0,005
838,00	-0,010
839,00	0,014
840,00	0,004
841,00	0,016
842,00	-0,014
843,00	0,017
844,00	0,001
845,00	-0,007
846,00	0,008
847,00	0,018
848,00	-0,004
849,00	0,005
850,00	0,028
851,00	0,002
852,00	0,019
853,00	0,007
854,00	0,010
855,00	0,001
856,00	0,008
857,00	-0,016
858,00	0,007
859,00	0,024
860,00	0,023
861,00	0,016
862,00	0,006
863,00	-0,008
864,00	0,005
865,00	-0,007
866,00	0,005
867,00	-0,011
868,00	0,006
869,00	-0,005
870,00	-0,004
871,00	-0,002
872,00	0,004
873,00	0,013
874,00	-0,004
875,00	0,017
876,00	0,006
877,00	-0,005
878,00	0,027
879,00	-0,013
880,00	0,024
881,00	-0,009
882,00	-0,012
883,00	0,004
884,00	-0,006
885,00	-0,007
886,00	0,011
887,00	0,001
888,00	0,005
889,00	0,027
890,00	0,019
891,00	0,007
892,00	0,006
893,00	0,000
894,00	-0,011
895,00	0,008
896,00	0,007
897,00	-0,019
898,00	0,036
899,00	-0,002
900,00	0,007
901,00	0,003
902,00	0,006
903,00	0,020
904,00	0,016
905,00	0,019
906,00	-0,021
907,00	-0,002
908,00	0,022
909,00	-0,001
910,00	0,023
911,00	0,019
912,00	0,005
913,00	0,013
914,00	0,009
915,00	0,008
916,00	0,008
917,00	-0,004
918,00	0,004
919,00	0,009
920,00	0,003
921,00	0,037
922,00	0,017
923,00	0,016
924,00	0,013
925,00	0,001
926,00	0,004
927,00	0,022
928,00	0,001
929,00	-0,001
930,00	0,014
931,00	0,018
932,00	-0,018
933,00	-0,005
934,00	-0,013
935,00	0,003
936,00	0,013
937,00	0,028
938,00	0,018
939,00	0,005
940,00	0,006
941,00	-0,008
942,00	0,009
943,00	-0,002
944,00	0,014
945,00	-0,010
946,00	0,005
947,00	-0,019
948,00	0,010
949,00	0,010
950,00	-0,006
951,00	-0,003
952,00	0,023
953,00	0,018
954,00	0,025
955,00	0,015
956,00	0,011
957,00	0,013
958,00	0,011
959,00	0,003
960,00	0,011
961,00	0,005
962,00	-0,006
963,00	0,004
964,00	0,002
965,00	0,009
966,00	0,032
967,00	-0,001
968,00	0,001
969,00	0,008
970,00	0,020
971,00	-0,010
972,00	-0,008
973,00	-0,014
974,00	0,007
975,00	-0,007
976,00	0,012
977,00	-0,000
978,00	0,023
979,00	0,028
980,00	0,009
981,00	-0,008
982,00	0,004
983,00	0,000
984,00	0,005
985,00	0,004
986,00	-0,004
987,00	-0,019
988,00	0,001
989,00	0,004
990,00	-0,003
991,00	0,029
992,00	0,010
993,00	0,003
994,00	0,006
995,00	-0,007
996,00	0,007
997,00	-0,003
998,00	0,000
999,00	0,016
1000,00	0,012
1001,00	0,012
1002,00	0,008
1003,00	0,004
1004,00	0,008
1005,00	0,010
1006,00	-0,011
1007,00	0,010
1008,00	0,012
1009,00	0,020
1010,00	-0,011
1011,00	0,018
1012,00	0,015
1013,00	0,022
1014,00	0,018
1015,00	-0,002
1016,00	0,029
1017,00	0,024
1018,00	0,005
1019,00	0,007
1020,00	0,014
1021,00	0,004
1022,00	0,018
1023,00	0,011
1024,00	-0,003
1025,00	0,002
1026,00	0,019
1027,00	0,006
1028,00	0,001
1029,00	0,024
1030,00	0,006
1031,00	0,007
1032,00	-0,007
1033,00	-0,000
1034,00	-0,001
1035,00	0,007
1036,00	-0,004
1037,00	-0,002
1038,00	-0,002
1039,00	0,016
1040,00	0,007
1041,00	0,018
1042,00	-0,006
1043,00	-0,000
1044,00	0,028
1045,00	0,001
1046,00	0,012
1047,00	0,004
1048,00	0,003
1049,00	0,011
1050,00	-0,004
1051,00	-0,002
1052,00	0,014
1053,00	-0,007
1054,00	-0,011
1055,00	-0,004
1056,00	-0,001
1057,00	-0,009
1058,00	0,011
1059,00	0,011
1060,00	0,006
1061,00	0,007
1062,00	-0,015
1063,00	0,029
1064,00	-0,007
1065,00	0,006
1066,00	0,003
1067,00	0,008
1068,00	-0,002
1069,00	0,014
1070,00	0,005
1071,00	0,006
1072,00	0,012
1073,00	0,011
1074,00	0,016
1075,00	-0,001
1076,00	0,015
1077,00	-0,000
1078,00	0,008
1079,00	0,013
1080,00	-0,004
1081,00	0,037
1082,00	0,002
1083,00	0,006
1084,00	0,010
1085,00	-0,005
1086,00	0,013
1087,00	0,026
1088,00	0,034
1089,00	0,006
1090,00	-0,013
1091,00	0,005
1092,00	0,018
1093,00	0,004
1094,00	0,002
1095,00	-0,012
1096,00	0,006
1097,00	0,003
1098,00	0,009
1099,00	0,009
1100,00	-0,012
1101,00	0,006
1102,00	0,009
1103,00	0,023
1104,00	0,002
1105,00	0,018
1106,00	0,007
1107,00	0,004
1108,00	0,020
1109,00	0,017
1110,00	0,009
1111,00	0,025
1112,00	0,016
1113,00	0,010
1114,00	0,006
1115,00	0,013
1116,00	0,010
1117,00	-0,001
1118,00	0,010
1119,00	0,025
1120,00	-0,007
1121,00	0,015
1122,00	0,003
1123,00	0,016
1124,00	0,001
1125,00	0,010
1126,00	0,014
1127,00	0,002
1128,00	0,012
1129,00	0,014
1130,00	-0,023
1131,00	0,001
1132,00	0,009
1133,00	-0,011
1134,00	0,020
1135,00	0,026
1136,00	0,011
1137,00	-0,001
1138,00	0,009
1139,00	0,012
1140,00	0,028
1141,00	0,012
1142,00	-0,004
1143,00	-0,000
1144,00	-0,006
1145,00	-0,009
1146,00	0,003
1147,00	0,021
1148,00	0,004
1149,00	0,009
1150,00	0,015
1151,00	0,011
1152,00	0,011
1153,00	0,014
1154,00	0,006
1155,00	-0,003
1156,00	0,015
1157,00	0,019
1158,00	-0,005
1159,00	0,006
1160,00	-0,007
1161,00	0,012
1162,00	-0,000
1163,00	0,016
1164,00	0,020
1165,00	0,009
1166,00	0,004
1167,00	0,004
1168,00	0,026
1169,00	0,012
1170,00	0,020
1171,00	-0,001
1172,00	0,013
1173,00	0,004
1174,00	0,014
1175,00	0,002
1176,00	0,010
1177,00	0,010
1178,00	0,015
1179,00	-0,014
1180,00	0,001
1181,00	0,019
1182,00	0,007
1183,00	0,022
1184,00	0,004
1185,00	0,018
1186,00	-0,007
1187,00	0,001
1188,00	-0,019
1189,00	0,004
1190,00	0,016
1191,00	0,027
1192,00	0,007
1193,00	0,030
1194,00	-0,015
1195,00	0,001
1196,00	0,027
1197,00	0,002
1198,00	0,013
1199,00	0,019
1200,00	0,020
1201,00	0,011
1202,00	0,004
1203,00	0,016
1204,00	-0,004
1205,00	0,009
1206,00	0,019
1207,00	0,019
1208,00	0,023
1209,00	0,024
1210,00	0,007
1211,00	0,015
1212,00	0,011
1213,00	0,022
1214,00	0,002
1215,00	-0,001
1216,00	0,016
1217,00	-0,011
1218,00	-0,003
1219,00	0,004
1220,00	0,020
1221,00	0,024
1222,00	-0,001
1223,00	0,003
1224,00	0,005
1225,00	0,015
1226,00	0,003
1227,00	0,033
1228,00	0,026
1229,00	0,010
1230,00	-0,008
1231,00	0,001
1232,00	0,016
1233,00	0,011
1234,00	0,027
1235,00	0,007
1236,00	0,012
1237,00	0,002
1238,00	0,020
1239,00	0,012
1240,00	0,016
1241,00	0,004
1242,00	0,016
1243,00	-0,010
1244,00	0,030
1245,00	0,011
1246,00	0,015
1247,00	0,025
1248,00	0,021
1249,00	0,001
1250,00	0,012
1251,00	0,021
1252,00	0,016
1253,00	0,009
1254,00	-0,001
1255,00	-0,003
1256,00	0,020
1257,00	0,015
1258,00	0,010
1259,00	0,004
1260,00	0,005
1261,00	0,012
1262,00	0,022
1263,00	0,022
1264,00	0,005
1265,00	0,023
1266,00	0,016
1267,00	0,017
1268,00	0,024
1269,00	-0,001
1270,00	0,017
1271,00	0,024
1272,00	0,005
1273,00	0,037
1274,00	0,036
1275,00	0,016
1276,00	0,024
1277,00	0,009
1278,00	0,020
1279,00	0,034
1280,00	0,013
1281,00	0,019
1282,00	0,022
1283,00	0,016
1284,00	0,018
1285,00	0,037
1286,00	0,022
1287,00	0,035
1288,00	0,016
1289,00	0,027
1290,00	0,030
1291,00	0,032
1292,00	0,014
1293,00	0,041
1294,00	0,027
1295,00	0,038
1296,00	0,034
1297,00	0,038
1298,00	0,034
1299,00	0,010
1300,00	0,026
1301,00	0,044
1302,00	0,039
1303,00	0,045
1304,00	0,047
1305,00	0,026
1306,00	0,045
1307,00	0,059
1308,00	0,042
1309,00	0,029
1310,00	0,042
1311,00	0,049
1312,00	0,046
1313,00	0,044
1314,00	0,044
1315,00	0,045
1316,00	0,032
1317,00	0,055
1318,00	0,043
1319,00	0,052
1320,00	0,065
1321,00	0,051
1322,00	0,068
1323,00	0,056
1324,00	0,056
1325,00	0,051
1326,00	0,062
1327,00	0,059
1328,00	0,054
1329,00	0,034
1330,00	0,084
1331,00	0,065
1332,00	0,060
1333,00	0,042
1334,00	0,058
1335,00	0,060
1336,00	0,076
1337,00	0,080
1338,00	0,100
1339,00	0,100
1340,00	0,108
1341,00	0,129
1342,00	0,152
1343,00	0,152
1344,00	0,211
1345,00	0,225
1346,00	0,280
1347,00	0,347
1348,00	0,430
1349,00	0,509
1350,00	0,626
1351,00	0,761
1352,00	0,882
1353,00	1,045
1354,00	1,232
1355,00	1,422
1356,00	1,667
1357,00	1,935
1358,00	2,249
1359,00	2,497
1360,00	2,884
1361,00	3,242
1362,00	3,634
1363,00	4,065
1364,00	4,485
1365,00	5,001
1366,00	5,493
1367,00	6,107
1368,00	6,599
1369,00	7,156
1370,00	7,781
1371,00	8,428
1372,00	9,097
1373,00	9,698
1374,00	10,333
1375,00	10,956
1376,00	11,674
1377,00	12,360
1378,00	13,113
1379,00	13,843
1380,00	14,590
1381,00	15,203
1382,00	15,891
1383,00	16,570
1384,00	17,120
1385,00	18,045
1386,00	18,855
1387,00	19,356
1388,00	19,931
1389,00	20,432
1390,00	20,961
1391,00	21,775
1392,00	22,352
1393,00	22,729
1394,00	23,076
1395,00	23,478
1396,00	23,980
1397,00	24,466
1398,00	25,033
1399,00	25,293
1400,00	25,646
1401,00	26,132
1402,00	26,294
1403,00	26,450
1404,00	26,735
1405,00	26,970
1406,00	27,030
1407,00	27,324
1408,00	27,668
1409,00	27,668
1410,00	27,957
1411,00	27,957
1412,00	27,985
1413,00	28,146
1414,00	28,573
1415,00	28,806
1416,00	29,015
1417,00	29,187
1418,00	29,264
1419,00	29,291
1420,00	29,448
1421,00	29,307
1422,00	29,512
1423,00	29,550
1424,00	29,587
1425,00	29,627
1426,00	29,903
1427,00	30,046
1428,00	30,054
1429,00	30,120
1430,00	29,930
1431,00	29,927
1432,00	30,128
1433,00	29,772
1434,00	30,038
1435,00	29,924
1436,00	30,020
1437,00	30,393
1438,00	30,263
1439,00	30,651
1440,00	30,696
1441,00	30,795
1442,00	30,623
1443,00	30,548
1444,00	30,579
1445,00	30,277
1446,00	30,591
1447,00	30,970
1448,00	30,889
1449,00	30,958
1450,00	30,752
1451,00	31,039
1452,00	31,246
1453,00	30,944
1454,00	31,098
1455,00	31,241
1456,00	31,081
1457,00	31,126
1458,00	31,186
1459,00	31,093
1460,00	30,998
1461,00	31,156
1462,00	31,215
1463,00	31,085
1464,00	31,205
1465,00	31,211
1466,00	31,228
1467,00	31,029
1468,00	31,053
1469,00	31,088
1470,00	31,033
1471,00	30,940
1472,00	30,976
1473,00	31,064
1474,00	31,058
1475,00	30,903
1476,00	30,612
1477,00	30,769
1478,00	30,894
1479,00	31,391
1480,00	31,234
1481,00	31,216
1482,00	31,166
1483,00	31,206
1484,00	31,229
1485,00	31,103
1486,00	31,379
1487,00	31,483
1488,00	31,473
1489,00	31,473
1490,00	31,461
1491,00	31,225
1492,00	31,316
1493,00	31,557
1494,00	31,392
1495,00	31,244
1496,00	31,531
1497,00	31,374
1498,00	31,228
1499,00	31,591
1500,00	31,702
1501,00	31,694
1502,00	31,795
1503,00	31,490
1504,00	31,494
1505,00	31,551
1506,00	31,569
1507,00	31,313
1508,00	31,436
1509,00	31,418
1510,00	31,765
1511,00	31,820
1512,00	31,491
1513,00	31,735
1514,00	31,688
1515,00	31,393
1516,00	31,611
1517,00	31,706
1518,00	31,946
1519,00	31,668
1520,00	31,591
1521,00	31,626
1522,00	31,723
1523,00	31,574
1524,00	31,525
1525,00	31,777
1526,00	31,687
1527,00	32,004
1528,00	32,083
1529,00	31,753
1530,00	31,995
1531,00	31,967
1532,00	31,805
1533,00	31,929
1534,00	32,025
1535,00	31,904
1536,00	31,734
1537,00	31,949
1538,00	32,119
1539,00	31,808
1540,00	31,778
1541,00	31,859
1542,00	31,650
1543,00	31,557
1544,00	31,936
1545,00	32,004
1546,00	31,972
1547,00	31,964
1548,00	31,908
1549,00	31,787
1550,00	31,941
1551,00	31,989
1552,00	31,954
1553,00	31,887
1554,00	32,148
1555,00	31,968
1556,00	31,760
1557,00	31,958
1558,00	31,790
1559,00	31,802
1560,00	31,740
1561,00	31,688
1562,00	31,747
1563,00	31,921
1564,00	31,752
1565,00	32,135
1566,00	32,179
1567,00	32,229
1568,00	32,160
1569,00	32,132
1570,00	31,988
1571,00	31,903
1572,00	31,798
1573,00	31,845
1574,00	31,988
1575,00	32,078
1576,00	31,960
1577,00	31,998
1578,00	32,059
1579,00	31,957
1580,00	31,962
1581,00	32,257
1582,00	32,269
1583,00	32,421
1584,00	32,557
1585,00	32,086
1586,00	32,035
1587,00	32,199
1588,00	32,204
1589,00	32,303
1590,00	32,669
1591,00	32,618
1592,00	32,425
1593,00	32,063
1594,00	31,846
1595,00	31,978
1596,00	32,418
1597,00	32,307
1598,00	32,385
1599,00	32,359
1600,00	32,150
1601,00	32,078
1602,00	32,352
1603,00	32,463
1604,00	32,091
1605,00	32,177
1606,00	31,903
1607,00	32,147
1608,00	32,404
1609,00	31,906
1610,00	31,964
1611,00	32,106
1612,00	32,219
1613,00	32,460
1614,00	32,243
1615,00	32,483
1616,00	32,145
1617,00	32,171
1618,00	32,352
1619,00	32,488
1620,00	32,473
1621,00	32,202
1622,00	32,119
1623,00	32,547
1624,00	32,503
1625,00	32,432
1626,00	32,412
1627,00	32,314
1628,00	32,275
1629,00	32,306
1630,00	32,488
1631,00	32,735
1632,00	32,686
1633,00	32,548
1634,00	32,631
1635,00	32,506
1636,00	32,468
1637,00	32,548
1638,00	32,636
1639,00	32,668
1640,00	32,604
1641,00	32,522
1642,00	32,644
1643,00	32,554
1644,00	32,408
1645,00	32,211
1646,00	31,985
1647,00	32,280
1648,00	32,560
1649,00	32,440
1650,00	32,415
1651,00	32,528
1652,00	32,445
1653,00	32,579
1654,00	32,665
1655,00	32,946
1656,00	32,960
1657,00	32,728
1658,00	32,300
1659,00	32,256
1660,00	32,476
1661,00	32,533
1662,00	32,422
1663,00	32,503
1664,00	32,761
1665,00	32,503
1666,00	32,367
1667,00	32,580
1668,00	32,444
1669,00	32,340
1670,00	32,414
1671,00	32,504
1672,00	32,140
1673,00	32,494
1674,00	32,444
1675,00	32,349
1676,00	32,433
1677,00	32,466
1678,00	32,202
1679,00	32,256
1680,00	32,681
1681,00	32,658
1682,00	32,251
1683,00	32,564
1684,00	32,859
1685,00	32,727
1686,00	32,495
1687,00	32,600
1688,00	32,308
1689,00	32,467
1690,00	32,518
1691,00	32,480
1692,00	32,655
1693,00	32,468
1694,00	32,242
1695,00	32,433
1696,00	32,572
1697,00	32,399
1698,00	32,242
1699,00	32,594
1700,00	32,554
1701,00	32,585
1702,00	32,707
1703,00	32,451
1704,00	32,300
1705,00	32,575
1706,00	32,604
1707,00	32,502
1708,00	32,849
1709,00	32,804
1710,00	32,793
1711,00	32,506
1712,00	32,391
1713,00	32,546
1714,00	32,783
1715,00	32,590
1716,00	32,465
1717,00	32,389
1718,00	32,510
1719,00	32,657
1720,00	32,728
1721,00	32,953
1722,00	33,042
1723,00	32,563
1724,00	32,511
1725,00	32,482
1726,00	32,562
1727,00	32,532
1728,00	32,512
1729,00	32,506
1730,00	32,511
1731,00	32,627
1732,00	33,019
1733,00	33,215
1734,00	32,684
1735,00	32,321
1736,00	32,716
1737,00	32,933
1738,00	33,177
1739,00	32,958
1740,00	32,849
1741,00	33,089
1742,00	32,888
1743,00	32,670
1744,00	32,815
1745,00	32,741
1746,00	32,822
1747,00	32,882
1748,00	32,694
1749,00	32,744
1750,00	32,710
1751,00	32,769
1752,00	32,997
1753,00	32,656
1754,00	32,764
1755,00	32,500
1756,00	32,677
1757,00	32,950
1758,00	32,729
1759,00	32,614
1760,00	32,903
1761,00	32,980
1762,00	32,664
1763,00	32,781
1764,00	32,795
1765,00	32,649
1766,00	32,581
1767,00	32,897
1768,00	33,091
1769,00	33,017
1770,00	32,782
1771,00	32,842
1772,00	32,782
1773,00	32,835
1774,00	32,951
1775,00	32,971
1776,00	32,911
1777,00	32,844
1778,00	32,991
1779,00	32,819
1780,00	32,966
1781,00	32,520
1782,00	32,441
1783,00	32,618
1784,00	33,001
1785,00	33,145
1786,00	33,137
1787,00	32,993
1788,00	32,791
1789,00	32,799
1790,00	32,741
1791,00	32,575
1792,00	32,436
1793,00	32,738
1794,00	32,662
1795,00	33,161
1796,00	33,180
1797,00	32,739
1798,00	32,732
1799,00	32,785
1800,00	32,903
1801,00	32,883
1802,00	33,004
1803,00	32,863
1804,00	32,588
1805,00	32,591
1806,00	32,728
1807,00	32,723
1808,00	32,957
1809,00	32,923
1810,00	32,965
1811,00	32,719
1812,00	32,887
1813,00	32,661
1814,00	32,648
1815,00	32,717
1816,00	33,076
1817,00	32,951
1818,00	32,805
1819,00	33,009
1820,00	32,890
1821,00	33,147
1822,00	33,221
1823,00	33,252
1824,00	32,760
1825,00	32,786
1826,00	33,111
1827,00	33,336
1828,00	33,379
1829,00	33,366
1830,00	33,120
1831,00	33,223
1832,00	33,146
1833,00	32,957
1834,00	33,264
1835,00	33,307
1836,00	33,309
1837,00	33,632
1838,00	33,277
1839,00	33,402
1840,00	33,311
1841,00	33,253
1842,00	33,319
1843,00	32,964
1844,00	33,057
1845,00	32,689
1846,00	32,734
1847,00	32,910
1848,00	32,960
1849,00	33,261
1850,00	33,323
1851,00	33,156
1852,00	33,262
1853,00	33,168
1854,00	32,923
1855,00	33,030
1856,00	32,696
1857,00	33,016
1858,00	33,092
1859,00	33,105
1860,00	33,304
1861,00	33,156
1862,00	33,271
1863,00	32,971
1864,00	32,871
1865,00	32,898
1866,00	33,004
1867,00	32,929
1868,00	32,923
1869,00	32,904
1870,00	32,832
1871,00	33,181
1872,00	33,337
1873,00	33,052
1874,00	32,894
1875,00	32,899
1876,00	32,895
1877,00	32,927
1878,00	32,818
1879,00	32,838
1880,00	32,860
1881,00	32,795
1882,00	32,975
1883,00	33,212
1884,00	33,103
1885,00	32,798
1886,00	32,873
1887,00	33,118
1888,00	33,447
1889,00	33,762
1890,00	33,554
1891,00	33,317
1892,00	33,108
1893,00	32,994
1894,00	32,996
1895,00	33,021
1896,00	33,283
1897,00	33,229
1898,00	33,292
1899,00	33,433
1900,00	33,165
1901,00	33,145
1902,00	33,347
1903,00	33,567
1904,00	33,299
1905,00	33,221
1906,00	33,076
1907,00	32,864
1908,00	33,024
1909,00	32,771
1910,00	33,044
1911,00	33,067
1912,00	33,139
1913,00	33,027
1914,00	33,041
1915,00	33,216
1916,00	33,073
1917,00	33,235
1918,00	33,631
1919,00	33,135
1920,00	33,068
1921,00	33,065
1922,00	33,007
1923,00	33,249
1924,00	33,209
1925,00	33,764
1926,00	33,702
1927,00	33,823
1928,00	33,478
1929,00	33,453
1930,00	33,541
1931,00	33,340
1932,00	33,347
1933,00	33,266
1934,00	33,250
1935,00	33,369
1936,00	33,411
1937,00	33,518
1938,00	33,755
1939,00	33,529
1940,00	33,227
1941,00	32,994
1942,00	33,274
1943,00	33,547
1944,00	33,484
1945,00	33,752
1946,00	33,287
1947,00	33,031
1948,00	33,023
1949,00	33,266
1950,00	33,447
1951,00	33,424
1952,00	33,462
1953,00	33,533
1954,00	33,478
1955,00	32,992
1956,00	32,953
1957,00	33,004
1958,00	33,121
1959,00	33,081
1960,00	33,295
1961,00	33,321
1962,00	33,362
1963,00	33,253
1964,00	33,283
1965,00	33,165
1966,00	33,200
1967,00	32,834
1968,00	33,229
1969,00	33,158
1970,00	33,210
1971,00	33,130
1972,00	33,312
1973,00	32,933
1974,00	33,236
1975,00	33,059
1976,00	32,784
1977,00	32,733
1978,00	33,087
1979,00	33,325
1980,00	32,975
1981,00	33,080
1982,00	33,094
1983,00	33,131
1984,00	33,321
1985,00	32,855
1986,00	32,804
1987,00	32,827
1988,00	33,041
1989,00	33,551
1990,00	33,501
1991,00	33,418
1992,00	33,364
1993,00	33,339
1994,00	33,552
1995,00	33,581
1996,00	33,448
1997,00	33,316
1998,00	33,063
1999,00	33,189
2000,00	32,960
2001,00	32,904
2002,00	32,901
2003,00	33,078
2004,00	33,123
2005,00	32,987
2006,00	33,141
2007,00	32,955
2008,00	32,668
2009,00	32,810
2010,00	32,901
2011,00	32,840
2012,00	32,889
2013,00	33,060
2014,00	33,162
2015,00	32,990
2016,00	33,155
2017,00	32,998
2018,00	33,405
2019,00	33,693
2020,00	33,590
2021,00	33,126
2022,00	33,241
2023,00	33,628
2024,00	33,604
2025,00	33,538
2026,00	33,173
2027,00	33,177
2028,00	33,371
2029,00	33,280
2030,00	33,270
2031,00	33,383
2032,00	33,658
2033,00	33,899
2034,00	33,451
2035,00	33,082
2036,00	33,060
2037,00	33,207
2038,00	33,132
2039,00	32,957
2040,00	33,334
2041,00	33,448
2042,00	33,418
2043,00	33,025
2044,00	33,305
2045,00	33,350
2046,00	33,390
2047,00	33,154
2048,00	33,290
2049,00	33,778
2050,00	33,835
2051,00	33,672
2052,00	33,541
2053,00	32,980
2054,00	32,904
2055,00	33,048
2056,00	33,001
2057,00	33,115
2058,00	33,259
2059,00	33,295
2060,00	33,414
2061,00	33,350
2062,00	33,123
2063,00	32,964
2064,00	32,829
2065,00	33,300
2066,00	33,639
2067,00	33,674
2068,00	33,176
2069,00	33,221
2070,00	33,633
2071,00	33,566
2072,00	33,205
2073,00	33,425
2074,00	33,890
2075,00	33,486
2076,00	33,017
2077,00	32,900
2078,00	32,592
2079,00	33,081
2080,00	33,252
2081,00	33,701
2082,00	33,735
2083,00	33,503
2084,00	33,584
2085,00	33,064
2086,00	33,298
2087,00	33,409
2088,00	33,044
2089,00	33,228
2090,00	33,667
2091,00	33,972
2092,00	33,751
2093,00	33,632
2094,00	33,451
2095,00	33,545
2096,00	33,441
2097,00	33,532
2098,00	33,655
2099,00	33,536
2100,00	33,586
2101,00	33,551
2102,00	33,563
2103,00	33,597
2104,00	33,362
2105,00	33,318
2106,00	33,344
2107,00	33,452
2108,00	33,401
2109,00	33,592
2110,00	33,554
2111,00	33,409
2112,00	33,405
2113,00	33,553
2114,00	33,495
2115,00	33,312
2116,00	33,359
2117,00	33,435
2118,00	33,652
2119,00	33,448
2120,00	33,566
2121,00	33,941
2122,00	34,124
2123,00	34,188
2124,00	33,834
2125,00	33,285
2126,00	33,461
2127,00	33,645
2128,00	33,482
2129,00	33,567
2130,00	33,868
2131,00	33,640
2132,00	33,257
2133,00	33,272
2134,00	33,169
2135,00	33,001
2136,00	33,332
2137,00	33,548
2138,00	33,472
2139,00	33,804
2140,00	33,617
2141,00	33,793
2142,00	33,898
2143,00	33,959
2144,00	33,906
2145,00	33,826
2146,00	33,889
2147,00	33,457
2148,00	33,266
2149,00	33,093
2150,00	33,230
2151,00	33,375
2152,00	33,203
2153,00	33,125
2154,00	33,585
2155,00	33,596
2156,00	33,760
2157,00	33,338
2158,00	33,292
2159,00	33,637
2160,00	33,396
2161,00	33,412
2162,00	33,901
2163,00	33,755
2164,00	33,758
2165,00	33,563
2166,00	33,854
2167,00	33,811
2168,00	33,884
2169,00	34,114
2170,00	34,219
2171,00	33,974
2172,00	33,580
2173,00	33,854
2174,00	33,854
2175,00	33,898
2176,00	33,371
2177,00	33,298
2178,00	33,776
2179,00	33,868
2180,00	34,217
2181,00	34,119
2182,00	33,664
2183,00	33,496
2184,00	33,418
2185,00	33,836
2186,00	33,665
2187,00	33,649
2188,00	33,562
2189,00	33,532
2190,00	33,581
2191,00	33,689
2192,00	33,213
2193,00	33,279
2194,00	33,308
2195,00	33,321
2196,00	33,822
2197,00	33,482
2198,00	33,570
2199,00	33,736
2200,00	33,887
2201,00	33,690
2202,00	33,620
2203,00	33,625
2204,00	33,088
2205,00	33,614
2206,00	33,670
2207,00	33,637
2208,00	34,079
2209,00	34,135
2210,00	33,890
2211,00	33,673
2212,00	34,016
2213,00	33,845
2214,00	33,836
2215,00	33,975
2216,00	34,080
2217,00	33,953
2218,00	34,116
2219,00	33,669
2220,00	33,823
2221,00	33,953
2222,00	34,109
2223,00	33,798
2224,00	33,568
2225,00	34,167
2226,00	33,941
2227,00	33,972
2228,00	33,768
2229,00	33,664
2230,00	33,609
2231,00	33,799
2232,00	33,633
2233,00	33,912
2234,00	34,028
2235,00	33,873
2236,00	34,206
2237,00	33,973
2238,00	33,980
2239,00	33,626
2240,00	33,876
2241,00	34,034
2242,00	34,206
2243,00	34,268
2244,00	33,941
2245,00	33,437
2246,00	33,115
2247,00	33,298
2248,00	33,305
2249,00	33,623
2250,00	33,825
2251,00	33,848
2252,00	33,604
2253,00	33,831
2254,00	33,971
2255,00	34,314
2256,00	34,375
2257,00	34,031
2258,00	33,999
2259,00	33,762
2260,00	33,523
2261,00	34,037
2262,00	34,291
2263,00	34,143
2264,00	34,355
2265,00	34,702
2266,00	34,390
2267,00	34,249
2268,00	34,005
2269,00	33,693
2270,00	33,692
2271,00	33,668
2272,00	33,700
2273,00	34,260
2274,00	33,950
2275,00	34,201
2276,00	33,942
2277,00	33,640
2278,00	33,865
2279,00	33,654
2280,00	33,454
2281,00	33,796
2282,00	33,988
2283,00	34,196
2284,00	34,613
2285,00	34,523
2286,00	34,602
2287,00	34,434
2288,00	34,644
2289,00	34,100
2290,00	34,128
2291,00	33,825
2292,00	33,592
2293,00	33,784
2294,00	33,630
2295,00	33,871
2296,00	33,889
2297,00	33,989
2298,00	34,036
2299,00	34,204
2300,00	33,981
2301,00	33,968
2302,00	34,107
2303,00	34,228
2304,00	34,019
2305,00	34,215
2306,00	34,522
2307,00	34,694
2308,00	34,187
2309,00	34,346
2310,00	33,987
2311,00	34,229
2312,00	33,863
2313,00	33,523
2314,00	33,740
2315,00	34,416
2316,00	34,134
2317,00	34,045
2318,00	34,059
2319,00	33,823
2320,00	34,089
2321,00	33,823
2322,00	33,720
2323,00	33,614
2324,00	34,020
2325,00	34,118
2326,00	34,453
2327,00	34,039
2328,00	34,129
2329,00	34,009
2330,00	34,156
2331,00	34,107
2332,00	34,069
2333,00	34,391
2334,00	34,262
2335,00	33,793
2336,00	33,562
2337,00	34,198
2338,00	34,246
2339,00	34,156
2340,00	34,198
2341,00	34,477
2342,00	34,178
2343,00	34,312
2344,00	34,078
2345,00	34,019
2346,00	34,088
2347,00	33,761
2348,00	33,834
2349,00	33,734
2350,00	33,472
2351,00	34,070
2352,00	34,289
2353,00	34,517
2354,00	34,103
2355,00	33,750
2356,00	33,557
2357,00	33,518
2358,00	33,390
2359,00	34,290
2360,00	34,474
2361,00	34,369
2362,00	33,944
2363,00	34,068
2364,00	34,320
2365,00	34,567
2366,00	34,080
2367,00	34,503
2368,00	34,124
2369,00	34,299
2370,00	34,634
2371,00	34,550
2372,00	34,866
2373,00	34,497
2374,00	34,430
2375,00	34,562
2376,00	34,108
2377,00	33,810
2378,00	33,597
2379,00	33,632
2380,00	33,779
2381,00	34,434
2382,00	34,578
2383,00	34,143
2384,00	33,891
2385,00	34,576
2386,00	34,607
2387,00	34,481
2388,00	34,280
2389,00	33,947
2390,00	33,511
2391,00	33,406
2392,00	33,526
2393,00	33,764
2394,00	33,932
2395,00	33,737
2396,00	33,651
2397,00	34,027
2398,00	34,095
2399,00	33,989
2400,00	34,322
2401,00	34,940
2402,00	34,772
2403,00	34,547
2404,00	34,768
2405,00	35,274
2406,00	34,615
2407,00	34,423
2408,00	33,876
2409,00	33,997
2410,00	33,955
2411,00	34,377
2412,00	34,303
2413,00	34,266
2414,00	34,237
2415,00	34,170
2416,00	34,187
2417,00	34,224
2418,00	34,272
2419,00	34,434
2420,00	34,274
2421,00	34,412
2422,00	34,499
2423,00	34,650
2424,00	34,797
2425,00	34,849
2426,00	34,928
2427,00	34,836
2428,00	34,559
2429,00	34,808
2430,00	34,244
2431,00	33,853
2432,00	34,218
2433,00	34,023
2434,00	34,453
2435,00	34,718
2436,00	34,562
2437,00	34,200
2438,00	34,672
2439,00	34,255
2440,00	33,914
2441,00	34,176
2442,00	33,993
2443,00	34,061
2444,00	33,943
2445,00	34,383
2446,00	34,451
2447,00	34,133
2448,00	34,157
2449,00	34,329
2450,00	34,071
2451,00	34,202
2452,00	34,197
2453,00	34,888
2454,00	34,876
2455,00	34,621
2456,00	34,894
2457,00	34,567
2458,00	34,176
2459,00	34,137
2460,00	34,305
2461,00	34,182
2462,00	34,826
2463,00	34,705
2464,00	34,777
2465,00	34,550
2466,00	34,519
2467,00	34,111
2468,00	34,246
2469,00	34,442
2470,00	34,224
2471,00	34,036
2472,00	33,718
2473,00	34,125
2474,00	34,663
2475,00	34,169
2476,00	34,455
2477,00	34,717
2478,00	34,290
2479,00	34,660
2480,00	34,487
2481,00	34,360
2482,00	34,286
2483,00	34,003
2484,00	34,080
2485,00	34,117
2486,00	34,384
2487,00	34,168
2488,00	34,709
2489,00	34,344
2490,00	35,107
2491,00	35,118
2492,00	34,980
2493,00	34,718
2494,00	34,669
2495,00	34,267
2496,00	34,001
2497,00	34,538
2498,00	34,280
2499,00	34,273
2500,00	34,500
2501,00	34,022
2502,00	34,629
2503,00	34,362
2504,00	34,832
2505,00	34,778
2506,00	34,478
2507,00	34,790
2508,00	35,172
2509,00	35,303
2510,00	34,869
2511,00	34,653
2512,00	34,859
2513,00	35,018
2514,00	34,860
2515,00	34,575
2516,00	34,922
2517,00	34,355
2518,00	34,751
2519,00	34,831
2520,00	35,029
2521,00	34,804
2522,00	34,610
2523,00	34,352
2524,00	34,677
2525,00	34,323
2526,00	34,404
2527,00	34,530
2528,00	34,353
2529,00	34,570
2530,00	34,550
2531,00	34,930
2532,00	34,826
2533,00	34,280
2534,00	34,942
2535,00	34,265
2536,00	34,555
2537,00	34,534
2538,00	34,869
2539,00	34,803
2540,00	34,562
2541,00	34,665
2542,00	34,973
2543,00	34,689
2544,00	34,149
2545,00	34,058
2546,00	34,562
2547,00	34,613
2548,00	34,896
2549,00	34,923
2550,00	34,972
2551,00	34,849
2552,00	34,574
2553,00	34,335
2554,00	34,243
2555,00	35,013
2556,00	35,375
2557,00	35,219
2558,00	34,757
2559,00	34,467
2560,00	34,136
2561,00	34,838
2562,00	33,962
2563,00	34,470
2564,00	34,213
2565,00	35,019
2566,00	34,692
2567,00	34,982
2568,00	33,557
2569,00	33,972
2570,00	34,585
2571,00	34,911
2572,00	34,340
2573,00	34,546
2574,00	34,591
2575,00	34,454
2576,00	34,001
2577,00	34,017
2578,00	34,737
2579,00	34,561
2580,00	34,454
2581,00	34,439
2582,00	34,556
2583,00	35,014
2584,00	34,585
2585,00	34,594
2586,00	34,507
2587,00	34,763
2588,00	34,123
2589,00	34,080
2590,00	34,433
2591,00	34,425
2592,00	34,239
2593,00	34,060
2594,00	34,783
2595,00	34,990
2596,00	34,727
2597,00	35,018
2598,00	34,938
2599,00	34,663
2600,00	34,154
2601,00	34,474
2602,00	34,658
2603,00	34,233
2604,00	34,249
2605,00	33,745
2606,00	34,111
2607,00	34,395
2608,00	34,585
2609,00	34,823
2610,00	34,613
2611,00	34,643
2612,00	34,386
2613,00	34,427
2614,00	34,873
2615,00	34,394
2616,00	34,298
2617,00	34,161
2618,00	34,085
2619,00	34,492
2620,00	34,902
2621,00	35,242
2622,00	35,698
2623,00	34,594
2624,00	34,305
2625,00	34,865
2626,00	34,401
2627,00	34,382
2628,00	34,660
2629,00	35,013
2630,00	35,379
2631,00	35,272
2632,00	34,800
2633,00	34,690
2634,00	34,792
2635,00	34,212
2636,00	34,483
2637,00	34,216
2638,00	34,463
2639,00	34,318
2640,00	34,059
2641,00	34,561
2642,00	35,619
2643,00	35,301
2644,00	35,449
2645,00	35,527
2646,00	34,856
2647,00	34,783
2648,00	35,203
2649,00	34,716
2650,00	34,570
2651,00	34,366
2652,00	34,850
2653,00	35,138
2654,00	35,212
2655,00	34,773
2656,00	34,072
2657,00	34,004
2658,00	34,077
2659,00	34,602
2660,00	34,985
2661,00	34,801
2662,00	35,009
2663,00	35,205
2664,00	34,570
2665,00	35,220
2666,00	35,611
2667,00	35,427
2668,00	34,743
2669,00	35,175
2670,00	35,278
2671,00	34,161
2672,00	34,366
2673,00	35,332
2674,00	35,581
2675,00	35,731
2676,00	35,576
2677,00	34,858
2678,00	35,394
2679,00	34,922
2680,00	34,853
2681,00	34,305
2682,00	34,441
2683,00	34,097
2684,00	34,369
2685,00	34,973
2686,00	34,628
2687,00	34,628
2688,00	34,459
2689,00	34,455
2690,00	34,435
2691,00	34,580
2692,00	35,128
2693,00	35,559
2694,00	36,169
2695,00	35,707
2696,00	35,078
2697,00	34,858
2698,00	34,178
2699,00	34,657
2700,00	34,777
2701,00	34,521
2702,00	34,485
2703,00	34,770
2704,00	34,144
2705,00	34,347
2706,00	34,554
2707,00	34,844
2708,00	34,736
2709,00	34,791
2710,00	34,828
2711,00	34,123
2712,00	34,144
2713,00	34,570
2714,00	34,190
2715,00	33,985
2716,00	34,300
2717,00	34,108
2718,00	33,578
2719,00	34,300
2720,00	34,673
2721,00	35,058
2722,00	34,611
2723,00	35,103
2724,00	35,676
2725,00	35,804
2726,00	35,725
2727,00	35,788
2728,00	35,817
2729,00	35,877
2730,00	34,907
2731,00	34,672
2732,00	34,339
2733,00	35,372
2734,00	34,703
2735,00	34,167
2736,00	34,366
2737,00	34,416
2738,00	34,913
2739,00	35,158
2740,00	35,589
2741,00	35,471
2742,00	35,645
2743,00	34,843
2744,00	34,678
2745,00	35,162
2746,00	34,849
2747,00	35,168
2748,00	35,389
2749,00	35,260
2750,00	35,346
2751,00	35,187
2752,00	34,785
2753,00	35,014
2754,00	35,538
2755,00	36,247
2756,00	36,051
2757,00	36,249
2758,00	35,412
2759,00	35,667
2760,00	35,217
2761,00	34,780
2762,00	34,030
2763,00	34,285
2764,00	34,101
2765,00	34,816
2766,00	34,601
2767,00	35,142
2768,00	35,083
2769,00	35,219
2770,00	35,000
2771,00	34,906
2772,00	35,749
2773,00	35,809
2774,00	35,723
2775,00	35,163
2776,00	34,511
2777,00	35,719
2778,00	35,263
2779,00	34,599
2780,00	34,844
2781,00	34,583
2782,00	35,476
2783,00	35,312
2784,00	35,517
2785,00	34,961
2786,00	35,400
2787,00	34,826
2788,00	35,019
2789,00	35,067
2790,00	34,738
2791,00	35,275
2792,00	35,617
2793,00	35,011
2794,00	35,932
2795,00	35,296
2796,00	35,230
2797,00	35,011
2798,00	34,840
2799,00	34,678
2800,00	35,149
2801,00	35,280
2802,00	35,445
2803,00	35,753
2804,00	35,452
2805,00	35,206
2806,00	35,875
2807,00	35,540
2808,00	35,344
2809,00	35,513
2810,00	35,404
2811,00	35,081
2812,00	35,399
2813,00	34,904
2814,00	34,692
2815,00	35,051
2816,00	34,688
2817,00	34,416
2818,00	34,949
2819,00	35,297
2820,00	34,549
2821,00	34,268
2822,00	34,745
2823,00	35,183
2824,00	35,121
2825,00	34,343
2826,00	34,847
2827,00	35,175
2828,00	35,480
2829,00	34,686
2830,00	34,659
2831,00	34,935
2832,00	35,177
2833,00	35,747
2834,00	35,600
2835,00	35,336
2836,00	35,881
2837,00	35,027
2838,00	35,009
2839,00	35,079
2840,00	35,583
2841,00	35,605
2842,00	35,669
2843,00	35,243
2844,00	34,644
2845,00	35,544
2846,00	35,115
2847,00	35,313
2848,00	35,264
2849,00	34,840
2850,00	34,930
2851,00	34,805
2852,00	34,797
2853,00	34,883
2854,00	35,495
2855,00	35,190
2856,00	35,267
2857,00	34,119
2858,00	33,722
2859,00	34,048
2860,00	35,377
2861,00	35,036
2862,00	34,472
2863,00	34,112
2864,00	35,022
2865,00	35,311
2866,00	34,228
2867,00	35,026
2868,00	35,416
2869,00	34,570
2870,00	34,552
2871,00	34,648
2872,00	34,983
2873,00	34,995
2874,00	35,697
2875,00	34,688
2876,00	35,044
2877,00	34,898
2878,00	35,301
2879,00	34,691
2880,00	35,273
2881,00	35,343
2882,00	35,252
2883,00	35,086
2884,00	35,358
2885,00	35,580
2886,00	35,146
2887,00	35,154
2888,00	35,001
2889,00	34,480
2890,00	34,581
2891,00	34,583
2892,00	35,343
2893,00	35,558
2894,00	34,886
2895,00	35,677
2896,00	35,902
2897,00	35,402
2898,00	35,347
2899,00	35,291
2900,00	35,454
2901,00	35,450
2902,00	35,191
2903,00	34,713
2904,00	35,399
2905,00	34,990
2906,00	34,290
2907,00	34,254
2908,00	34,318
2909,00	34,297
2910,00	34,350
2911,00	34,534
2912,00	34,563
2913,00	34,969
2914,00	34,614
2915,00	34,692
2916,00	34,134
2917,00	34,229
2918,00	34,445
2919,00	34,289
2920,00	34,617
2921,00	34,279
2922,00	34,946
2923,00	35,121
2924,00	35,023
2925,00	35,340
2926,00	35,173
2927,00	34,119
2928,00	34,721
2929,00	34,943
2930,00	34,477
2931,00	35,449
2932,00	34,818
2933,00	35,551
2934,00	34,839
2935,00	35,091
2936,00	35,640
2937,00	35,032
2938,00	34,754
2939,00	33,957
2940,00	34,494
2941,00	35,048
2942,00	35,405
2943,00	35,579
2944,00	34,741
2945,00	34,324
2946,00	35,538
2947,00	34,582
2948,00	35,144
2949,00	35,542
2950,00	35,265
2951,00	34,997
2952,00	35,108
2953,00	35,436
2954,00	35,320
2955,00	35,548
2956,00	36,058
2957,00	35,819
2958,00	36,115
2959,00	35,298
2960,00	35,759
2961,00	35,375
2962,00	35,513
2963,00	35,023
2964,00	35,136
2965,00	36,259
2966,00	35,696
2967,00	35,398
2968,00	35,867
2969,00	35,812
2970,00	35,840
2971,00	35,848
2972,00	36,545
2973,00	35,892
2974,00	36,554
2975,00	35,510
2976,00	35,546
2977,00	35,947
2978,00	35,903
2979,00	36,061
2980,00	35,201
2981,00	35,422
2982,00	35,297
2983,00	35,518
2984,00	34,978
2985,00	35,463
2986,00	35,620
2987,00	35,846
2988,00	35,659
2989,00	35,978
2990,00	34,770
2991,00	36,363
2992,00	35,669
2993,00	36,758
2994,00	35,711
2995,00	35,570
2996,00	35,588
2997,00	36,242
2998,00	36,354
2999,00	36,042
3000,00	36,620
3001,00	35,868
3002,00	36,140
3003,00	35,945
3004,00	35,296
3005,00	35,734
3006,00	34,985
3007,00	35,843
3008,00	35,678
3009,00	35,439
3010,00	35,202
3011,00	36,355
3012,00	35,191
3013,00	35,150
3014,00	36,349
3015,00	36,492
3016,00	36,431
3017,00	35,720
3018,00	34,679
3019,00	34,835
3020,00	35,253
3021,00	35,785
3022,00	35,509
3023,00	35,889
3024,00	36,077
3025,00	35,151
3026,00	35,813
3027,00	35,766
3028,00	34,931
3029,00	35,395
3030,00	36,511
3031,00	35,743
3032,00	35,322
3033,00	35,418
3034,00	35,776
3035,00	35,285
3036,00	34,398
3037,00	35,514
3038,00	34,552
3039,00	35,449
3040,00	35,438
3041,00	35,068
3042,00	35,374
3043,00	35,722
3044,00	35,413
3045,00	36,189
3046,00	36,064
3047,00	35,875
3048,00	35,405
3049,00	35,985
3050,00	36,000
3051,00	35,919
3052,00	35,935
3053,00	36,066
3054,00	37,198
3055,00	35,895
3056,00	36,208
3057,00	36,220
3058,00	35,661
3059,00	36,566
3060,00	36,175
3061,00	36,065
3062,00	33,778
3063,00	35,632
3064,00	36,323
3065,00	35,527
3066,00	36,089
3067,00	36,312
3068,00	35,749
3069,00	36,300
3070,00	36,259
3071,00	35,856
3072,00	36,370
3073,00	35,784
3074,00	35,732
3075,00	35,204
3076,00	35,505
3077,00	35,612
3078,00	35,331
3079,00	36,653
3080,00	36,033
3081,00	35,346
3082,00	35,763
3083,00	34,909
3084,00	35,081
3085,00	34,705
3086,00	35,862
3087,00	35,853
3088,00	36,753
3089,00	35,504
3090,00	35,827
3091,00	35,316
3092,00	36,134
3093,00	35,225
3094,00	35,131
3095,00	35,261
3096,00	34,362
3097,00	35,050
3098,00	36,065
3099,00	34,944
3100,00	34,755
3101,00	35,813
3102,00	36,051
3103,00	35,613
3104,00	35,000
3105,00	35,128
3106,00	36,099
3107,00	35,687
3108,00	35,345
3109,00	36,305
3110,00	35,697
3111,00	35,578
3112,00	36,650
3113,00	35,474
3114,00	36,115
3115,00	36,068
3116,00	35,936
3117,00	35,293
3118,00	35,025
3119,00	35,021
3120,00	33,836
3121,00	34,900
3122,00	34,938
3123,00	35,933
3124,00	36,067
3125,00	35,310
3126,00	35,692
3127,00	36,091
3128,00	35,078
3129,00	36,194
3130,00	36,639
3131,00	35,548
3132,00	35,763
3133,00	35,288
3134,00	35,199
3135,00	35,997
3136,00	36,474
3137,00	35,338
3138,00	35,746
3139,00	35,312
3140,00	35,895
3141,00	35,067
3142,00	35,446
3143,00	36,499
3144,00	36,371
3145,00	37,018
3146,00	35,590
3147,00	36,004
3148,00	35,144
3149,00	35,529
3150,00	35,605
3151,00	34,936
3152,00	35,413
3153,00	34,577
3154,00	35,029
3155,00	34,425
3156,00	35,146
3157,00	35,618
3158,00	36,523
3159,00	34,985
3160,00	35,546
3161,00	34,334
3162,00	34,364
3163,00	35,237
3164,00	34,715
3165,00	35,174
3166,00	35,556
3167,00	35,025
3168,00	36,606
3169,00	35,666
3170,00	34,631
3171,00	35,594
3172,00	35,043
3173,00	34,250
3174,00	35,612
3175,00	35,952
3176,00	35,706
3177,00	35,540
3178,00	37,099
3179,00	37,244
3180,00	36,028
3181,00	35,780
3182,00	36,652
3183,00	35,757
3184,00	36,454
3185,00	36,392
3186,00	35,530
3187,00	35,903
3188,00	36,158
3189,00	36,125
3190,00	35,792
3191,00	35,559
3192,00	36,426
3193,00	36,437
3194,00	35,167
3195,00	35,563
3196,00	36,035
3197,00	35,965
3198,00	36,254
3199,00	36,990
3200,00	35,878
3201,00	35,725
3202,00	37,254
3203,00	36,278
3204,00	36,330
3205,00	36,004
3206,00	34,836
3207,00	36,594
3208,00	35,920
3209,00	35,479
3210,00	35,681
3211,00	35,945
3212,00	35,613
3213,00	34,610
3214,00	34,641
3215,00	34,544
3216,00	34,833
3217,00	36,278
3218,00	36,536
3219,00	35,936
3220,00	35,006
3221,00	36,272
3222,00	35,794
3223,00	36,074
3224,00	35,700
3225,00	36,177
3226,00	36,598
3227,00	35,772
3228,00	36,949
3229,00	36,490
3230,00	37,296
3231,00	36,336
3232,00	37,071
3233,00	35,555
3234,00	35,819
3235,00	35,681
3236,00	35,860
3237,00	35,758
3238,00	36,569
3239,00	36,648
3240,00	36,067
3241,00	37,499
3242,00	35,898
3243,00	36,081
3244,00	36,494
3245,00	36,122
3246,00	36,785
3247,00	38,163
3248,00	37,178
3249,00	36,566
3250,00	37,148
3251,00	37,257
3252,00	36,369
3253,00	36,160
3254,00	36,612
3255,00	35,072
3256,00	36,055
3257,00	38,056
3258,00	37,717
3259,00	35,921
3260,00	36,708
3261,00	35,418
3262,00	36,670
3263,00	35,701
3264,00	35,451
3265,00	36,458
3266,00	34,751
3267,00	36,782
3268,00	35,770
3269,00	35,390
3270,00	36,476
3271,00	36,395
3272,00	37,125
3273,00	35,591
3274,00	36,945
3275,00	36,703
3276,00	35,523
3277,00	36,131
3278,00	36,922
3279,00	36,075
3280,00	36,051
3281,00	36,593
3282,00	35,981
3283,00	35,607
3284,00	37,390
3285,00	37,839
3286,00	36,847
3287,00	36,628
3288,00	35,416
3289,00	36,971
3290,00	35,500
3291,00	34,720
3292,00	38,375
3293,00	36,935
3294,00	37,024
3295,00	36,514
3296,00	35,831
3297,00	37,224
3298,00	36,212
3299,00	37,617
3300,00	37,444
3301,00	37,351
3302,00	37,751
3303,00	36,952
3304,00	35,997
3305,00	37,698
3306,00	36,184
3307,00	37,389
3308,00	36,470
3309,00	35,835
3310,00	37,108
3311,00	37,029
3312,00	37,844
3313,00	38,492
3314,00	36,712
3315,00	36,135
3316,00	37,418
3317,00	36,691
3318,00	37,296
3319,00	37,822
3320,00	37,443
3321,00	38,010
3322,00	37,271
3323,00	37,481
3324,00	37,401
3325,00	36,508
3326,00	36,890
3327,00	36,952
3328,00	36,508
3329,00	36,914
3330,00	36,365
3331,00	38,397
3332,00	36,309
3333,00	36,539
3334,00	35,426
3335,00	37,845
3336,00	36,335
3337,00	38,232
3338,00	37,674
3339,00	38,218
3340,00	37,419
3341,00	37,295
3342,00	37,250
3343,00	38,218
3344,00	39,354
3345,00	37,475
3346,00	38,029
3347,00	37,045
3348,00	38,275
3349,00	37,946
3350,00	37,678
3351,00	37,193
3352,00	37,189
3353,00	37,644
3354,00	37,113
3355,00	37,194
3356,00	37,412
3357,00	36,620
3358,00	36,406
3359,00	38,710
3360,00	37,218
3361,00	41,305
3362,00	37,571
3363,00	38,998
3364,00	37,171
3365,00	36,160
3366,00	36,194
3367,00	36,321
3368,00	37,838
3369,00	38,681
3370,00	37,118
3371,00	38,279
3372,00	36,627
3373,00	37,990
3374,00	38,555
3375,00	37,743
3376,00	37,283
3377,00	39,559
3378,00	38,748
3379,00	37,502
3380,00	38,291
3381,00	36,322
3382,00	36,949
3383,00	37,369
3384,00	37,295
3385,00	38,274
3386,00	40,119
3387,00	38,057
3388,00	37,414
3389,00	39,121
3390,00	40,071
3391,00	39,317
3392,00	40,902
3393,00	36,169
3394,00	35,562
3395,00	36,088
3396,00	36,029
3397,00	36,662
3398,00	37,752
3399,00	36,351
3400,00	36,430
3401,00	37,525
3402,00	39,147
3403,00	36,351
3404,00	39,033
3405,00	36,296
3406,00	35,429
3407,00	36,403
3408,00	37,941
3409,00	37,527
3410,00	38,600
3411,00	38,871
3412,00	38,131
3413,00	36,575
3414,00	39,193
3415,00	38,058
3416,00	37,297
3417,00	36,567
3418,00	38,398
3419,00	37,893
3420,00	38,929
3421,00	39,713
3422,00	39,849
3423,00	37,378
3424,00	35,792
3425,00	37,506
3426,00	37,456
3427,00	38,880
3428,00	38,159
3429,00	36,964
3430,00	35,914
3431,00	36,845
3432,00	38,346
3433,00	37,008
3434,00	37,341
3435,00	37,979
3436,00	36,911
3437,00	39,975
3438,00	38,285
3439,00	39,340
3440,00	36,322
3441,00	38,975
3442,00	37,525
3443,00	35,920
3444,00	36,421
3445,00	36,163
3446,00	37,792
3447,00	38,422
3448,00	36,070
3449,00	38,229
3450,00	40,026
3451,00	37,791
3452,00	35,936
3453,00	36,959
3454,00	38,233
3455,00	39,514
3456,00	36,941
3457,00	38,337
3458,00	36,838
3459,00	38,124
3460,00	36,270
3461,00	37,813
3462,00	36,620
3463,00	40,111
3464,00	36,144
3465,00	36,635
3466,00	38,891
3467,00	39,972
3468,00	39,553
3469,00	39,838
3470,00	35,640
3471,00	39,005
3472,00	38,134
3473,00	36,626
3474,00	37,320
3475,00	39,490
3476,00	39,929
3477,00	37,102
3478,00	37,781
3479,00	39,609
3480,00	38,505
3481,00	36,645
3482,00	41,524
3483,00	39,656
3484,00	38,792
3485,00	36,122
3486,00	38,570
3487,00	36,601
3488,00	35,933
3489,00	37,270
3490,00	37,236
3491,00	36,158
3492,00	39,666
3493,00	37,412
3494,00	37,516
3495,00	37,412
3496,00	34,757
3497,00	37,199
3498,00	39,205
3499,00	38,070
3500,00	37,296
3501,00	38,028
3502,00	37,878
3503,00	36,017
3504,00	38,593
3505,00	37,760
3506,00	35,647
3507,00	37,644
3508,00	39,333
3509,00	37,044
3510,00	39,276
3511,00	40,357
3512,00	40,728
3513,00	39,556
3514,00	39,494
3515,00	39,946
3516,00	39,332
3517,00	42,525
3518,00	37,324
3519,00	44,445
3520,00	37,655
3521,00	38,575
3522,00	36,701
3523,00	40,533
3524,00	34,430
3525,00	35,795
3526,00	36,104
3527,00	40,337
3528,00	35,721
3529,00	40,395
3530,00	37,353
3531,00	37,684
3532,00	38,007
3533,00	35,904
3534,00	33,342
3535,00	36,928
3536,00	36,781
3537,00	38,286
3538,00	38,370
3539,00	35,915
3540,00	39,014
3541,00	35,624
3542,00	34,799
3543,00	37,920
3544,00	38,748
3545,00	31,820
3546,00	38,825
3547,00	39,175
3548,00	36,134
3549,00	41,352
3550,00	42,421
3551,00	40,059
3552,00	33,837
3553,00	35,965
3554,00	35,514
3555,00	36,387
3556,00	40,192
3557,00	35,200
3558,00	39,097
3559,00	31,427
3560,00	37,432
3561,00	39,310
3562,00	35,652
3563,00	36,937
3564,00	38,805
3565,00	37,987
3566,00	37,971
3567,00	39,288
3568,00	39,199
3569,00	36,503
3570,00	35,670
3571,00	38,367
3572,00	38,076
3573,00	38,144
3574,00	38,418
3575,00	37,885
3576,00	36,134
3577,00	36,242
3578,00	41,712
3579,00	40,756
3580,00	41,548
3581,00	32,970
3582,00	40,923
3583,00	41,157
3584,00	34,156
3585,00	37,478
3586,00	34,256
3587,00	35,751
3588,00	37,581
3589,00	38,410
3590,00	43,745
3591,00	39,896
3592,00	38,724
3593,00	38,403
3594,00	38,335
3595,00	42,022
3596,00	38,002
3597,00	43,377
3598,00	35,086
3599,00	42,068
3600,00	40,069
3601,00	40,193
3602,00	41,093
3603,00	35,799
3604,00	40,976
3605,00	42,465
3606,00	36,540
3607,00	35,363
3608,00	33,791
3609,00	38,842
3610,00	35,979
3611,00	43,812
3612,00	38,990
3613,00	31,957
3614,00	37,779
3615,00	38,705
3616,00	36,892
3617,00	35,837
3618,00	38,233
3619,00	33,642
3620,00	34,622
3621,00	34,882
3622,00	34,968
3623,00	39,727
3624,00	43,236
3625,00	39,268
3626,00	34,714
3627,00	44,084
3628,00	39,856
3629,00	44,728
3630,00	35,809
3631,00	38,243
3632,00	36,247
3633,00	45,380
3634,00	35,218
3635,00	43,810
3636,00	35,348
3637,00	33,444
3638,00	44,208
3639,00	34,217
3640,00	40,099
3641,00	38,866
3642,00	42,932
3643,00	40,485
3644,00	39,077
3645,00	41,872
3646,00	38,214
3647,00	45,156
>>>>>Finisci Dati dello Spettro Elaborati<<<<<
