File Dati SpectraSuite
++++++++++++++++++++++++++++++++++++
Data: Tue Feb 26 17:14:00 CET 2019
Utente: Studente
Numero di Serie Spettrometro: USB4F01341
Canale dello Spettrometro: 0
Tempo di integrazione (usec): 4000
Media Spettri: 36
Appiattimento Boxcar: 0
Correggi Oscurità Elettronica: No
Strobo/Lampada Abilitato: No
Correct for Detector Non-linearity: No
Correggi Stray Light: No
Numero di Pixel nello Spettro: 3648
>>>>>Comincia Dati dello Spettro<<<<<
0,00	1283,337
1,00	1283,337
2,00	1283,337
3,00	1288,627
4,00	1292,610
5,00	1294,373
6,00	1296,023
7,00	1297,786
8,00	1291,699
9,00	1294,544
10,00	1296,876
11,00	1284,020
12,00	1299,607
13,00	1305,011
14,00	1298,810
15,00	1285,840
16,00	1297,331
17,00	1297,730
18,00	1303,703
19,00	1294,487
20,00	1303,475
21,00	1291,301
22,00	1300,005
23,00	1289,196
24,00	1293,178
25,00	1292,553
26,00	1306,377
27,00	1296,307
28,00	1308,595
29,00	1303,589
30,00	1301,200
31,00	1290,846
32,00	1294,032
33,00	1297,445
34,00	1298,128
35,00	1303,020
36,00	1300,915
37,00	1297,843
38,00	1299,436
39,00	1300,062
40,00	1306,149
41,00	1297,218
42,00	1307,287
43,00	1299,493
44,00	1295,170
45,00	1293,349
46,00	1302,110
47,00	1289,538
48,00	1299,038
49,00	1294,885
50,00	1299,777
51,00	1288,684
52,00	1298,810
53,00	1297,900
54,00	1295,056
55,00	1293,577
56,00	1299,550
57,00	1302,508
58,00	1298,981
59,00	1293,065
60,00	1297,559
61,00	1294,430
62,00	1306,604
63,00	1297,388
64,00	1304,272
65,00	1298,754
66,00	1302,906
67,00	1295,909
68,00	1293,690
69,00	1291,756
70,00	1294,601
71,00	1298,697
72,00	1291,415
73,00	1297,388
74,00	1301,086
75,00	1295,113
76,00	1293,577
77,00	1295,454
78,00	1291,074
79,00	1288,684
80,00	1314,056
81,00	1299,209
82,00	1303,760
83,00	1297,047
84,00	1295,113
85,00	1299,891
86,00	1293,747
87,00	1295,397
88,00	1293,406
89,00	1281,858
90,00	1297,673
91,00	1288,286
92,00	1290,846
93,00	1286,238
94,00	1301,143
95,00	1300,631
96,00	1297,616
97,00	1293,349
98,00	1307,799
99,00	1293,861
100,00	1289,196
101,00	1301,143
102,00	1295,568
103,00	1300,460
104,00	1303,361
105,00	1293,804
106,00	1304,613
107,00	1291,756
108,00	1307,856
109,00	1297,161
110,00	1296,819
111,00	1295,056
112,00	1299,379
113,00	1302,281
114,00	1300,574
115,00	1295,170
116,00	1293,008
117,00	1304,101
118,00	1307,230
119,00	1296,080
120,00	1302,451
121,00	1295,113
122,00	1302,224
123,00	1304,841
124,00	1301,427
125,00	1284,247
126,00	1303,248
127,00	1302,963
128,00	1296,876
129,00	1297,843
130,00	1298,526
131,00	1292,496
132,00	1304,727
133,00	1293,065
134,00	1311,098
135,00	1298,640
136,00	1313,431
137,00	1295,682
138,00	1294,373
139,00	1301,313
140,00	1295,795
141,00	1300,289
142,00	1305,694
143,00	1299,721
144,00	1294,658
145,00	1303,020
146,00	1306,889
147,00	1288,514
148,00	1309,221
149,00	1292,894
150,00	1299,948
151,00	1290,448
152,00	1310,131
153,00	1297,957
154,00	1298,526
155,00	1289,651
156,00	1295,170
157,00	1308,652
158,00	1306,263
159,00	1302,053
160,00	1296,819
161,00	1295,795
162,00	1303,987
163,00	1295,170
164,00	1297,274
165,00	1294,828
166,00	1290,789
167,00	1290,334
168,00	1298,014
169,00	1303,703
170,00	1300,289
171,00	1298,924
172,00	1312,805
173,00	1300,119
174,00	1309,790
175,00	1286,636
176,00	1311,781
177,00	1288,741
178,00	1310,188
179,00	1290,277
180,00	1300,688
181,00	1305,353
182,00	1297,673
183,00	1285,783
184,00	1306,775
185,00	1296,307
186,00	1297,900
187,00	1291,586
188,00	1300,289
189,00	1300,062
190,00	1303,760
191,00	1299,379
192,00	1303,475
193,00	1289,196
194,00	1298,697
195,00	1298,981
196,00	1300,745
197,00	1302,565
198,00	1302,394
199,00	1294,089
200,00	1304,499
201,00	1299,721
202,00	1299,948
203,00	1299,493
204,00	1302,451
205,00	1294,999
206,00	1306,775
207,00	1300,005
208,00	1298,640
209,00	1287,945
210,00	1306,377
211,00	1289,765
212,00	1313,146
213,00	1291,643
214,00	1296,080
215,00	1286,978
216,00	1301,598
217,00	1302,622
218,00	1299,322
219,00	1303,475
220,00	1304,784
221,00	1293,918
222,00	1298,640
223,00	1305,466
224,00	1305,580
225,00	1306,889
226,00	1304,784
227,00	1296,706
228,00	1303,134
229,00	1294,373
230,00	1293,463
231,00	1294,601
232,00	1299,834
233,00	1299,493
234,00	1290,107
235,00	1295,511
236,00	1299,266
237,00	1304,385
238,00	1304,272
239,00	1300,119
240,00	1300,972
241,00	1293,520
242,00	1299,948
243,00	1293,292
244,00	1309,107
245,00	1298,526
246,00	1288,343
247,00	1298,185
248,00	1298,924
249,00	1284,588
250,00	1290,505
251,00	1288,343
252,00	1298,640
253,00	1292,894
254,00	1301,541
255,00	1295,113
256,00	1298,754
257,00	1305,921
258,00	1297,161
259,00	1295,738
260,00	1302,451
261,00	1289,083
262,00	1305,694
263,00	1301,882
264,00	1291,586
265,00	1300,801
266,00	1304,385
267,00	1296,535
268,00	1314,455
269,00	1298,754
270,00	1313,032
271,00	1308,197
272,00	1314,511
273,00	1297,502
274,00	1305,921
275,00	1304,272
276,00	1307,002
277,00	1287,319
278,00	1294,316
279,00	1302,110
280,00	1303,532
281,00	1291,415
282,00	1300,972
283,00	1297,843
284,00	1306,604
285,00	1297,673
286,00	1310,359
287,00	1300,289
288,00	1303,532
289,00	1299,664
290,00	1307,571
291,00	1287,205
292,00	1305,011
293,00	1293,235
294,00	1305,239
295,00	1297,331
296,00	1305,011
297,00	1300,631
298,00	1300,460
299,00	1290,903
300,00	1310,416
301,00	1301,029
302,00	1306,775
303,00	1290,277
304,00	1300,915
305,00	1299,322
306,00	1304,215
307,00	1286,124
308,00	1303,191
309,00	1295,682
310,00	1308,595
311,00	1288,457
312,00	1301,257
313,00	1296,421
314,00	1315,251
315,00	1294,544
316,00	1298,412
317,00	1301,029
318,00	1308,709
319,00	1299,493
320,00	1295,511
321,00	1304,841
322,00	1300,745
323,00	1286,295
324,00	1301,427
325,00	1296,535
326,00	1299,834
327,00	1297,673
328,00	1302,110
329,00	1299,095
330,00	1313,544
331,00	1289,083
332,00	1309,562
333,00	1293,861
334,00	1300,517
335,00	1291,017
336,00	1304,613
337,00	1294,771
338,00	1291,472
339,00	1308,652
340,00	1304,499
341,00	1294,089
342,00	1300,289
343,00	1285,555
344,00	1298,412
345,00	1291,870
346,00	1307,912
347,00	1283,337
348,00	1300,460
349,00	1298,469
350,00	1303,191
351,00	1301,712
352,00	1305,808
353,00	1289,424
354,00	1297,559
355,00	1289,879
356,00	1300,574
357,00	1296,080
358,00	1302,963
359,00	1299,095
360,00	1311,553
361,00	1301,200
362,00	1307,400
363,00	1289,708
364,00	1304,556
365,00	1297,843
366,00	1306,889
367,00	1288,684
368,00	1303,760
369,00	1293,065
370,00	1300,176
371,00	1300,403
372,00	1303,361
373,00	1286,124
374,00	1298,128
375,00	1294,714
376,00	1306,945
377,00	1291,131
378,00	1307,059
379,00	1295,852
380,00	1303,191
381,00	1294,373
382,00	1300,517
383,00	1310,245
384,00	1298,014
385,00	1300,403
386,00	1306,604
387,00	1304,841
388,00	1304,613
389,00	1283,564
390,00	1304,385
391,00	1299,891
392,00	1299,607
393,00	1298,754
394,00	1296,535
395,00	1291,756
396,00	1289,026
397,00	1292,666
398,00	1296,933
399,00	1294,487
400,00	1303,589
401,00	1292,439
402,00	1315,137
403,00	1298,014
404,00	1301,655
405,00	1302,849
406,00	1296,990
407,00	1296,194
408,00	1308,709
409,00	1298,981
410,00	1299,948
411,00	1293,292
412,00	1306,206
413,00	1297,957
414,00	1308,936
415,00	1298,014
416,00	1303,817
417,00	1286,352
418,00	1300,460
419,00	1289,708
420,00	1298,185
421,00	1301,257
422,00	1306,092
423,00	1295,795
424,00	1298,014
425,00	1295,226
426,00	1314,568
427,00	1299,095
428,00	1312,862
429,00	1307,799
430,00	1310,416
431,00	1295,283
432,00	1309,335
433,00	1295,682
434,00	1294,487
435,00	1301,029
436,00	1296,819
437,00	1296,137
438,00	1304,727
439,00	1297,957
440,00	1307,628
441,00	1302,736
442,00	1289,822
443,00	1288,912
444,00	1306,547
445,00	1296,307
446,00	1306,377
447,00	1303,873
448,00	1308,652
449,00	1308,766
450,00	1308,823
451,00	1303,077
452,00	1312,122
453,00	1303,020
454,00	1305,523
455,00	1310,416
456,00	1309,448
457,00	1290,277
458,00	1302,622
459,00	1298,469
460,00	1297,673
461,00	1300,176
462,00	1302,110
463,00	1294,316
464,00	1305,523
465,00	1296,307
466,00	1298,185
467,00	1297,843
468,00	1300,915
469,00	1294,487
470,00	1297,900
471,00	1307,173
472,00	1293,690
473,00	1301,257
474,00	1301,825
475,00	1301,825
476,00	1301,712
477,00	1287,319
478,00	1296,819
479,00	1303,589
480,00	1311,496
481,00	1294,942
482,00	1301,029
483,00	1308,311
484,00	1311,041
485,00	1302,565
486,00	1298,128
487,00	1295,909
488,00	1305,466
489,00	1310,017
490,00	1298,185
491,00	1303,987
492,00	1301,143
493,00	1295,568
494,00	1291,756
495,00	1293,918
496,00	1301,769
497,00	1297,047
498,00	1299,834
499,00	1302,110
500,00	1308,652
501,00	1299,095
502,00	1304,727
503,00	1292,610
504,00	1312,407
505,00	1305,182
506,00	1307,742
507,00	1310,131
508,00	1307,173
509,00	1296,990
510,00	1294,202
511,00	1293,065
512,00	1301,370
513,00	1308,538
514,00	1299,834
515,00	1293,235
516,00	1292,894
517,00	1296,364
518,00	1311,383
519,00	1297,218
520,00	1302,508
521,00	1304,897
522,00	1314,227
523,00	1304,329
524,00	1307,002
525,00	1300,289
526,00	1304,727
527,00	1297,900
528,00	1305,296
529,00	1295,966
530,00	1296,876
531,00	1309,278
532,00	1308,311
533,00	1298,469
534,00	1303,077
535,00	1282,825
536,00	1307,344
537,00	1291,472
538,00	1291,074
539,00	1298,469
540,00	1301,257
541,00	1303,532
542,00	1305,239
543,00	1289,026
544,00	1307,116
545,00	1290,846
546,00	1303,191
547,00	1297,388
548,00	1300,005
549,00	1296,194
550,00	1309,335
551,00	1282,654
552,00	1300,176
553,00	1297,331
554,00	1306,718
555,00	1305,011
556,00	1308,083
557,00	1302,849
558,00	1309,847
559,00	1299,834
560,00	1305,637
561,00	1301,882
562,00	1289,765
563,00	1299,550
564,00	1298,469
565,00	1300,176
566,00	1291,301
567,00	1297,502
568,00	1303,817
569,00	1297,502
570,00	1307,002
571,00	1295,682
572,00	1305,182
573,00	1298,185
574,00	1306,263
575,00	1301,484
576,00	1302,622
577,00	1308,368
578,00	1293,861
579,00	1296,990
580,00	1293,747
581,00	1296,706
582,00	1293,520
583,00	1292,780
584,00	1302,224
585,00	1292,155
586,00	1294,828
587,00	1290,789
588,00	1299,607
589,00	1309,790
590,00	1294,771
591,00	1301,086
592,00	1305,296
593,00	1285,669
594,00	1306,490
595,00	1292,439
596,00	1301,825
597,00	1298,640
598,00	1308,083
599,00	1299,891
600,00	1305,751
601,00	1309,562
602,00	1312,748
603,00	1311,269
604,00	1312,293
605,00	1295,511
606,00	1305,011
607,00	1296,933
608,00	1307,116
609,00	1291,017
610,00	1302,508
611,00	1302,053
612,00	1311,610
613,00	1296,194
614,00	1313,317
615,00	1299,322
616,00	1306,718
617,00	1299,493
618,00	1322,305
619,00	1290,562
620,00	1309,847
621,00	1308,823
622,00	1309,904
623,00	1296,706
624,00	1294,885
625,00	1293,861
626,00	1304,329
627,00	1311,496
628,00	1303,873
629,00	1304,272
630,00	1309,904
631,00	1319,745
632,00	1305,921
633,00	1289,936
634,00	1284,475
635,00	1297,331
636,00	1301,655
637,00	1293,861
638,00	1312,350
639,00	1304,044
640,00	1301,598
641,00	1291,984
642,00	1294,544
643,00	1309,904
644,00	1306,149
645,00	1294,373
646,00	1311,212
647,00	1305,125
648,00	1302,849
649,00	1302,281
650,00	1308,823
651,00	1297,161
652,00	1317,868
653,00	1315,365
654,00	1304,954
655,00	1292,211
656,00	1304,215
657,00	1296,649
658,00	1307,685
659,00	1309,221
660,00	1301,257
661,00	1303,248
662,00	1308,197
663,00	1304,670
664,00	1309,335
665,00	1296,364
666,00	1304,499
667,00	1306,547
668,00	1306,433
669,00	1301,655
670,00	1306,149
671,00	1297,616
672,00	1299,834
673,00	1298,128
674,00	1305,068
675,00	1298,697
676,00	1303,532
677,00	1303,760
678,00	1302,281
679,00	1296,592
680,00	1313,658
681,00	1303,134
682,00	1299,607
683,00	1295,852
684,00	1307,856
685,00	1295,226
686,00	1292,211
687,00	1304,841
688,00	1304,897
689,00	1304,329
690,00	1308,538
691,00	1303,532
692,00	1308,026
693,00	1305,068
694,00	1298,924
695,00	1306,775
696,00	1303,475
697,00	1301,996
698,00	1308,424
699,00	1308,140
700,00	1303,930
701,00	1299,152
702,00	1303,361
703,00	1307,173
704,00	1308,538
705,00	1303,475
706,00	1311,098
707,00	1309,790
708,00	1309,790
709,00	1293,122
710,00	1317,697
711,00	1294,316
712,00	1309,278
713,00	1312,350
714,00	1311,155
715,00	1314,341
716,00	1310,871
717,00	1297,502
718,00	1308,368
719,00	1306,377
720,00	1304,158
721,00	1299,607
722,00	1306,206
723,00	1297,900
724,00	1308,766
725,00	1305,808
726,00	1310,359
727,00	1314,170
728,00	1320,997
729,00	1308,538
730,00	1298,185
731,00	1301,370
732,00	1318,380
733,00	1299,095
734,00	1304,215
735,00	1306,889
736,00	1305,580
737,00	1297,104
738,00	1316,787
739,00	1298,526
740,00	1301,996
741,00	1303,020
742,00	1320,257
743,00	1306,945
744,00	1303,589
745,00	1293,406
746,00	1314,056
747,00	1298,469
748,00	1316,389
749,00	1304,841
750,00	1311,269
751,00	1308,481
752,00	1305,239
753,00	1291,927
754,00	1308,140
755,00	1308,368
756,00	1308,595
757,00	1308,140
758,00	1310,529
759,00	1310,643
760,00	1302,565
761,00	1295,340
762,00	1307,799
763,00	1307,002
764,00	1311,553
765,00	1304,215
766,00	1311,155
767,00	1299,891
768,00	1304,101
769,00	1310,245
770,00	1311,155
771,00	1298,697
772,00	1306,547
773,00	1313,146
774,00	1312,236
775,00	1299,266
776,00	1312,919
777,00	1303,646
778,00	1301,029
779,00	1290,391
780,00	1300,915
781,00	1312,008
782,00	1309,847
783,00	1306,604
784,00	1310,529
785,00	1298,128
786,00	1314,398
787,00	1303,930
788,00	1307,230
789,00	1309,790
790,00	1311,553
791,00	1304,727
792,00	1317,925
793,00	1308,652
794,00	1315,023
795,00	1305,580
796,00	1312,862
797,00	1306,945
798,00	1312,179
799,00	1301,427
800,00	1305,694
801,00	1297,843
802,00	1303,305
803,00	1311,383
804,00	1317,242
805,00	1302,906
806,00	1314,455
807,00	1299,550
808,00	1307,344
809,00	1306,377
810,00	1313,943
811,00	1319,063
812,00	1315,422
813,00	1299,379
814,00	1295,568
815,00	1294,601
816,00	1301,655
817,00	1303,134
818,00	1298,867
819,00	1299,152
820,00	1308,140
821,00	1303,817
822,00	1318,039
823,00	1306,889
824,00	1317,299
825,00	1301,712
826,00	1303,134
827,00	1303,475
828,00	1311,667
829,00	1297,957
830,00	1315,592
831,00	1308,083
832,00	1309,619
833,00	1303,873
834,00	1310,302
835,00	1305,921
836,00	1306,377
837,00	1312,008
838,00	1319,176
839,00	1298,128
840,00	1311,724
841,00	1300,403
842,00	1322,476
843,00	1303,589
844,00	1314,170
845,00	1312,122
846,00	1311,724
847,00	1300,801
848,00	1308,709
849,00	1307,002
850,00	1299,436
851,00	1304,215
852,00	1308,709
853,00	1306,263
854,00	1307,969
855,00	1308,254
856,00	1311,667
857,00	1314,739
858,00	1311,326
859,00	1297,104
860,00	1304,442
861,00	1303,987
862,00	1307,628
863,00	1314,910
864,00	1309,847
865,00	1311,895
866,00	1310,074
867,00	1314,568
868,00	1313,089
869,00	1307,514
870,00	1312,976
871,00	1310,302
872,00	1308,652
873,00	1308,880
874,00	1310,814
875,00	1298,867
876,00	1310,757
877,00	1312,691
878,00	1303,817
879,00	1312,634
880,00	1307,514
881,00	1314,796
882,00	1314,170
883,00	1306,604
884,00	1316,218
885,00	1314,455
886,00	1307,002
887,00	1308,083
888,00	1311,269
889,00	1293,008
890,00	1304,499
891,00	1304,329
892,00	1315,137
893,00	1307,742
894,00	1321,850
895,00	1302,679
896,00	1310,188
897,00	1318,607
898,00	1297,559
899,00	1311,610
900,00	1312,122
901,00	1307,969
902,00	1312,691
903,00	1303,589
904,00	1305,409
905,00	1294,487
906,00	1321,793
907,00	1310,757
908,00	1304,272
909,00	1305,068
910,00	1302,281
911,00	1301,939
912,00	1313,089
913,00	1306,490
914,00	1306,832
915,00	1303,475
916,00	1313,146
917,00	1311,098
918,00	1313,601
919,00	1307,173
920,00	1314,056
921,00	1289,595
922,00	1304,044
923,00	1306,149
924,00	1308,197
925,00	1307,799
926,00	1310,074
927,00	1301,541
928,00	1312,407
929,00	1310,416
930,00	1307,799
931,00	1296,933
932,00	1325,946
933,00	1309,448
934,00	1318,551
935,00	1306,832
936,00	1308,481
937,00	1296,706
938,00	1304,044
939,00	1307,230
940,00	1312,919
941,00	1313,772
942,00	1310,700
943,00	1310,472
944,00	1307,571
945,00	1315,877
946,00	1307,799
947,00	1315,592
948,00	1305,296
949,00	1310,017
950,00	1318,266
951,00	1308,993
952,00	1298,526
953,00	1301,598
954,00	1301,029
955,00	1301,655
956,00	1309,278
957,00	1302,053
958,00	1308,026
959,00	1310,302
960,00	1307,856
961,00	1309,107
962,00	1318,095
963,00	1309,562
964,00	1308,311
965,00	1306,775
966,00	1303,361
967,00	1313,601
968,00	1311,155
969,00	1306,092
970,00	1304,784
971,00	1312,976
972,00	1321,338
973,00	1317,925
974,00	1313,374
975,00	1313,203
976,00	1308,083
977,00	1311,781
978,00	1310,302
979,00	1294,373
980,00	1309,050
981,00	1312,065
982,00	1315,365
983,00	1311,952
984,00	1312,464
985,00	1304,897
986,00	1320,087
987,00	1320,030
988,00	1311,155
989,00	1305,182
990,00	1316,616
991,00	1293,918
992,00	1309,164
993,00	1309,448
994,00	1310,416
995,00	1313,488
996,00	1306,547
997,00	1309,619
998,00	1314,056
999,00	1301,086
1000,00	1306,377
1001,00	1304,556
1002,00	1310,131
1003,00	1308,880
1004,00	1312,293
1005,00	1298,640
1006,00	1318,551
1007,00	1307,799
1008,00	1305,239
1009,00	1300,517
1010,00	1324,865
1011,00	1296,478
1012,00	1309,619
1013,00	1293,406
1014,00	1306,377
1015,00	1310,131
1016,00	1302,622
1017,00	1292,837
1018,00	1309,790
1019,00	1307,173
1020,00	1308,424
1021,00	1305,865
1022,00	1306,149
1023,00	1305,694
1024,00	1317,071
1025,00	1311,440
1026,00	1308,993
1027,00	1309,790
1028,00	1315,535
1029,00	1297,104
1030,00	1308,311
1031,00	1305,239
1032,00	1314,625
1033,00	1306,775
1034,00	1313,317
1035,00	1304,784
1036,00	1317,356
1037,00	1308,197
1038,00	1317,527
1039,00	1304,385
1040,00	1310,131
1041,00	1300,915
1042,00	1317,640
1043,00	1310,814
1044,00	1300,176
1045,00	1310,188
1046,00	1306,377
1047,00	1310,928
1048,00	1315,934
1049,00	1305,239
1050,00	1315,706
1051,00	1305,978
1052,00	1310,359
1053,00	1313,089
1054,00	1325,093
1055,00	1308,140
1056,00	1311,895
1057,00	1317,527
1058,00	1313,658
1059,00	1307,344
1060,00	1310,302
1061,00	1309,619
1062,00	1320,087
1063,00	1295,113
1064,00	1320,599
1065,00	1305,125
1066,00	1312,350
1067,00	1308,140
1068,00	1313,772
1069,00	1306,433
1070,00	1319,119
1071,00	1305,239
1072,00	1311,155
1073,00	1306,377
1074,00	1302,963
1075,00	1310,928
1076,00	1307,400
1077,00	1310,700
1078,00	1311,838
1079,00	1300,346
1080,00	1316,787
1081,00	1293,406
1082,00	1314,113
1083,00	1310,416
1084,00	1311,326
1085,00	1310,302
1086,00	1308,993
1087,00	1304,954
1088,00	1297,616
1089,00	1305,978
1090,00	1324,524
1091,00	1313,886
1092,00	1303,418
1093,00	1307,799
1094,00	1318,551
1095,00	1318,721
1096,00	1313,488
1097,00	1306,490
1098,00	1311,838
1099,00	1305,466
1100,00	1323,841
1101,00	1307,230
1102,00	1310,359
1103,00	1300,289
1104,00	1314,341
1105,00	1302,849
1106,00	1316,673
1107,00	1307,230
1108,00	1311,496
1109,00	1301,086
1110,00	1312,805
1111,00	1302,337
1112,00	1311,098
1113,00	1306,433
1114,00	1312,464
1115,00	1301,939
1116,00	1314,056
1117,00	1308,311
1118,00	1310,984
1119,00	1297,957
1120,00	1320,030
1121,00	1302,394
1122,00	1319,176
1123,00	1304,556
1124,00	1317,071
1125,00	1305,580
1126,00	1308,993
1127,00	1313,658
1128,00	1307,457
1129,00	1304,670
1130,00	1328,392
1131,00	1313,032
1132,00	1313,601
1133,00	1318,494
1134,00	1308,254
1135,00	1298,981
1136,00	1311,155
1137,00	1314,284
1138,00	1312,577
1139,00	1312,407
1140,00	1298,867
1141,00	1305,978
1142,00	1321,850
1143,00	1315,649
1144,00	1323,500
1145,00	1321,281
1146,00	1316,047
1147,00	1298,355
1148,00	1314,000
1149,00	1310,131
1150,00	1310,359
1151,00	1305,068
1152,00	1312,008
1153,00	1307,173
1154,00	1316,275
1155,00	1311,098
1156,00	1307,002
1157,00	1302,337
1158,00	1316,958
1159,00	1307,514
1160,00	1321,907
1161,00	1307,059
1162,00	1323,955
1163,00	1304,272
1164,00	1306,149
1165,00	1313,374
1166,00	1315,308
1167,00	1308,652
1168,00	1305,409
1169,00	1309,904
1170,00	1311,724
1171,00	1313,772
1172,00	1311,667
1173,00	1311,553
1174,00	1311,610
1175,00	1310,359
1176,00	1313,203
1177,00	1305,466
1178,00	1310,188
1179,00	1318,039
1180,00	1318,721
1181,00	1302,793
1182,00	1307,059
1183,00	1302,281
1184,00	1315,194
1185,00	1304,499
1186,00	1316,730
1187,00	1312,919
1188,00	1331,066
1189,00	1309,335
1190,00	1309,505
1191,00	1305,751
1192,00	1314,853
1193,00	1294,373
1194,00	1328,904
1195,00	1312,122
1196,00	1307,969
1197,00	1314,910
1198,00	1310,529
1199,00	1304,215
1200,00	1305,239
1201,00	1311,269
1202,00	1315,649
1203,00	1304,499
1204,00	1321,622
1205,00	1308,311
1206,00	1304,272
1207,00	1302,906
1208,00	1310,472
1209,00	1301,769
1210,00	1312,862
1211,00	1308,140
1212,00	1316,275
1213,00	1308,083
1214,00	1324,239
1215,00	1312,634
1216,00	1311,895
1217,00	1319,859
1218,00	1318,209
1219,00	1309,676
1220,00	1308,766
1221,00	1301,655
1222,00	1317,128
1223,00	1318,209
1224,00	1315,080
1225,00	1301,484
1226,00	1322,646
1227,00	1295,909
1228,00	1303,191
1229,00	1305,921
1230,00	1324,069
1231,00	1313,658
1232,00	1315,137
1233,00	1313,317
1234,00	1305,921
1235,00	1312,862
1236,00	1314,455
1237,00	1316,901
1238,00	1307,116
1239,00	1308,026
1240,00	1315,706
1241,00	1310,017
1242,00	1308,197
1243,00	1322,305
1244,00	1302,110
1245,00	1308,652
1246,00	1308,424
1247,00	1304,442
1248,00	1308,823
1249,00	1313,260
1250,00	1308,993
1251,00	1303,760
1252,00	1313,772
1253,00	1305,580
1254,00	1319,916
1255,00	1318,380
1256,00	1313,488
1257,00	1306,490
1258,00	1316,844
1259,00	1314,967
1260,00	1314,796
1261,00	1309,107
1262,00	1310,871
1263,00	1305,068
1264,00	1321,622
1265,00	1303,305
1266,00	1312,464
1267,00	1309,221
1268,00	1311,326
1269,00	1317,356
1270,00	1319,631
1271,00	1306,149
1272,00	1322,419
1273,00	1297,161
1274,00	1311,269
1275,00	1314,625
1276,00	1311,496
1277,00	1317,470
1278,00	1317,982
1279,00	1303,760
1280,00	1318,949
1281,00	1305,011
1282,00	1313,943
1283,00	1317,015
1284,00	1314,910
1285,00	1304,158
1286,00	1314,000
1287,00	1301,769
1288,00	1322,021
1289,00	1307,571
1290,00	1312,634
1291,00	1303,873
1292,00	1321,850
1293,00	1303,077
1294,00	1312,407
1295,00	1308,936
1296,00	1312,862
1297,00	1301,484
1298,00	1314,682
1299,00	1317,640
1300,00	1320,257
1301,00	1301,712
1302,00	1314,739
1303,00	1302,793
1304,00	1310,472
1305,00	1320,143
1306,00	1307,856
1307,00	1300,801
1308,00	1310,643
1309,00	1314,739
1310,00	1316,901
1311,00	1307,912
1312,00	1310,074
1313,00	1307,742
1314,00	1312,464
1315,00	1311,667
1316,00	1322,248
1317,00	1302,167
1318,00	1317,413
1319,00	1308,823
1320,00	1307,230
1321,00	1306,945
1322,00	1304,385
1323,00	1308,311
1324,00	1311,781
1325,00	1314,056
1326,00	1307,344
1327,00	1308,538
1328,00	1316,730
1329,00	1319,347
1330,00	1300,119
1331,00	1305,353
1332,00	1316,730
1333,00	1319,575
1334,00	1319,575
1335,00	1312,748
1336,00	1311,496
1337,00	1307,230
1338,00	1307,457
1339,00	1300,858
1340,00	1315,137
1341,00	1306,206
1342,00	1303,817
1343,00	1317,242
1344,00	1311,610
1345,00	1315,422
1346,00	1319,119
1347,00	1313,374
1348,00	1315,649
1349,00	1313,032
1350,00	1313,089
1351,00	1302,679
1352,00	1319,233
1353,00	1308,311
1354,00	1317,015
1355,00	1319,518
1356,00	1316,218
1357,00	1306,320
1358,00	1308,595
1359,00	1314,284
1360,00	1310,472
1361,00	1298,754
1362,00	1309,904
1363,00	1306,604
1364,00	1306,775
1365,00	1300,005
1366,00	1323,102
1367,00	1298,469
1368,00	1313,032
1369,00	1305,694
1370,00	1303,930
1371,00	1306,661
1372,00	1311,098
1373,00	1309,733
1374,00	1302,451
1375,00	1297,445
1376,00	1314,796
1377,00	1314,910
1378,00	1324,012
1379,00	1314,227
1380,00	1325,263
1381,00	1322,191
1382,00	1315,592
1383,00	1314,967
1384,00	1316,047
1385,00	1303,020
1386,00	1315,535
1387,00	1317,868
1388,00	1317,754
1389,00	1308,140
1390,00	1315,763
1391,00	1302,906
1392,00	1314,967
1393,00	1314,511
1394,00	1313,032
1395,00	1302,110
1396,00	1316,673
1397,00	1304,329
1398,00	1320,769
1399,00	1311,781
1400,00	1315,649
1401,00	1311,212
1402,00	1310,188
1403,00	1306,320
1404,00	1315,365
1405,00	1305,694
1406,00	1323,841
1407,00	1306,945
1408,00	1320,428
1409,00	1309,505
1410,00	1318,152
1411,00	1295,682
1412,00	1318,721
1413,00	1300,801
1414,00	1312,236
1415,00	1306,092
1416,00	1319,404
1417,00	1310,529
1418,00	1314,170
1419,00	1313,886
1420,00	1299,891
1421,00	1301,143
1422,00	1300,858
1423,00	1318,380
1424,00	1334,081
1425,00	1309,335
1426,00	1320,769
1427,00	1302,565
1428,00	1306,320
1429,00	1303,475
1430,00	1317,242
1431,00	1314,284
1432,00	1309,278
1433,00	1314,625
1434,00	1313,374
1435,00	1310,871
1436,00	1301,427
1437,00	1298,242
1438,00	1315,137
1439,00	1308,595
1440,00	1317,925
1441,00	1296,137
1442,00	1306,433
1443,00	1314,170
1444,00	1306,433
1445,00	1296,194
1446,00	1316,787
1447,00	1313,317
1448,00	1320,200
1449,00	1312,179
1450,00	1327,027
1451,00	1299,891
1452,00	1316,161
1453,00	1304,954
1454,00	1312,293
1455,00	1312,805
1456,00	1318,551
1457,00	1305,409
1458,00	1314,000
1459,00	1309,221
1460,00	1311,098
1461,00	1315,592
1462,00	1319,575
1463,00	1317,697
1464,00	1304,784
1465,00	1311,610
1466,00	1294,828
1467,00	1310,472
1468,00	1304,670
1469,00	1308,936
1470,00	1313,317
1471,00	1308,311
1472,00	1311,098
1473,00	1306,490
1474,00	1310,359
1475,00	1311,269
1476,00	1316,332
1477,00	1302,053
1478,00	1317,697
1479,00	1313,488
1480,00	1319,290
1481,00	1319,745
1482,00	1310,984
1483,00	1316,389
1484,00	1309,904
1485,00	1312,122
1486,00	1314,568
1487,00	1301,655
1488,00	1314,056
1489,00	1307,514
1490,00	1310,757
1491,00	1290,846
1492,00	1311,553
1493,00	1307,628
1494,00	1315,365
1495,00	1317,185
1496,00	1313,203
1497,00	1307,856
1498,00	1315,763
1499,00	1312,691
1500,00	1323,443
1501,00	1307,002
1502,00	1314,625
1503,00	1301,143
1504,00	1311,724
1505,00	1317,754
1506,00	1312,122
1507,00	1305,125
1508,00	1322,362
1509,00	1312,520
1510,00	1300,631
1511,00	1313,943
1512,00	1311,553
1513,00	1309,676
1514,00	1317,413
1515,00	1316,218
1516,00	1305,353
1517,00	1310,074
1518,00	1304,044
1519,00	1295,511
1520,00	1316,616
1521,00	1319,631
1522,00	1299,379
1523,00	1310,814
1524,00	1314,455
1525,00	1304,784
1526,00	1310,472
1527,00	1307,344
1528,00	1307,969
1529,00	1304,272
1530,00	1316,104
1531,00	1308,709
1532,00	1320,883
1533,00	1308,481
1534,00	1297,445
1535,00	1302,281
1536,00	1315,934
1537,00	1312,065
1538,00	1312,805
1539,00	1311,326
1540,00	1312,065
1541,00	1311,383
1542,00	1311,553
1543,00	1311,895
1544,00	1313,089
1545,00	1307,856
1546,00	1310,871
1547,00	1303,361
1548,00	1302,053
1549,00	1304,499
1550,00	1317,356
1551,00	1310,700
1552,00	1310,074
1553,00	1304,385
1554,00	1308,652
1555,00	1312,976
1556,00	1313,203
1557,00	1305,921
1558,00	1311,440
1559,00	1295,170
1560,00	1315,991
1561,00	1311,269
1562,00	1317,071
1563,00	1302,906
1564,00	1312,748
1565,00	1297,559
1566,00	1320,542
1567,00	1305,751
1568,00	1310,814
1569,00	1311,269
1570,00	1312,179
1571,00	1308,254
1572,00	1323,158
1573,00	1309,392
1574,00	1318,607
1575,00	1309,278
1576,00	1315,194
1577,00	1299,266
1578,00	1308,254
1579,00	1305,523
1580,00	1306,149
1581,00	1316,104
1582,00	1315,991
1583,00	1317,697
1584,00	1322,134
1585,00	1311,952
1586,00	1314,227
1587,00	1305,978
1588,00	1313,089
1589,00	1305,182
1590,00	1310,586
1591,00	1313,431
1592,00	1316,958
1593,00	1292,325
1594,00	1312,008
1595,00	1304,784
1596,00	1314,170
1597,00	1297,274
1598,00	1325,434
1599,00	1311,041
1600,00	1320,712
1601,00	1310,928
1602,00	1316,503
1603,00	1306,320
1604,00	1318,949
1605,00	1314,853
1606,00	1314,398
1607,00	1313,488
1608,00	1315,308
1609,00	1302,167
1610,00	1313,488
1611,00	1304,272
1612,00	1307,969
1613,00	1307,742
1614,00	1317,185
1615,00	1306,035
1616,00	1296,592
1617,00	1306,889
1618,00	1307,344
1619,00	1297,331
1620,00	1305,353
1621,00	1307,628
1622,00	1309,790
1623,00	1303,760
1624,00	1313,601
1625,00	1310,928
1626,00	1302,849
1627,00	1306,433
1628,00	1309,619
1629,00	1306,092
1630,00	1320,826
1631,00	1309,221
1632,00	1310,984
1633,00	1310,757
1634,00	1315,023
1635,00	1314,000
1636,00	1313,032
1637,00	1301,484
1638,00	1311,269
1639,00	1312,862
1640,00	1307,002
1641,00	1306,889
1642,00	1307,685
1643,00	1308,652
1644,00	1317,413
1645,00	1302,565
1646,00	1315,592
1647,00	1319,063
1648,00	1323,557
1649,00	1311,667
1650,00	1309,164
1651,00	1302,281
1652,00	1321,623
1653,00	1313,146
1654,00	1314,739
1655,00	1308,140
1656,00	1305,353
1657,00	1304,670
1658,00	1322,874
1659,00	1300,801
1660,00	1309,790
1661,00	1300,289
1662,00	1311,212
1663,00	1307,002
1664,00	1307,628
1665,00	1309,790
1666,00	1307,287
1667,00	1307,344
1668,00	1308,709
1669,00	1304,044
1670,00	1311,155
1671,00	1302,963
1672,00	1312,179
1673,00	1301,769
1674,00	1314,625
1675,00	1309,619
1676,00	1318,380
1677,00	1307,457
1678,00	1319,688
1679,00	1317,242
1680,00	1318,266
1681,00	1314,455
1682,00	1314,796
1683,00	1308,595
1684,00	1320,712
1685,00	1307,571
1686,00	1303,703
1687,00	1324,751
1688,00	1305,466
1689,00	1310,586
1690,00	1314,568
1691,00	1316,446
1692,00	1311,155
1693,00	1312,634
1694,00	1314,853
1695,00	1325,718
1696,00	1313,544
1697,00	1304,954
1698,00	1310,017
1699,00	1312,464
1700,00	1324,069
1701,00	1318,664
1702,00	1311,212
1703,00	1307,400
1704,00	1312,122
1705,00	1310,074
1706,00	1305,921
1707,00	1303,987
1708,00	1310,074
1709,00	1312,350
1710,00	1311,895
1711,00	1308,936
1712,00	1309,733
1713,00	1312,748
1714,00	1306,775
1715,00	1311,326
1716,00	1302,451
1717,00	1307,571
1718,00	1314,739
1719,00	1307,685
1720,00	1306,604
1721,00	1310,131
1722,00	1319,063
1723,00	1295,625
1724,00	1311,440
1725,00	1320,712
1726,00	1317,128
1727,00	1302,622
1728,00	1314,398
1729,00	1306,149
1730,00	1307,344
1731,00	1303,817
1732,00	1310,416
1733,00	1309,050
1734,00	1313,829
1735,00	1300,631
1736,00	1311,269
1737,00	1308,652
1738,00	1322,760
1739,00	1304,385
1740,00	1308,538
1741,00	1307,628
1742,00	1310,359
1743,00	1310,131
1744,00	1316,161
1745,00	1304,841
1746,00	1310,757
1747,00	1302,281
1748,00	1326,230
1749,00	1302,394
1750,00	1311,781
1751,00	1308,083
1752,00	1310,302
1753,00	1305,580
1754,00	1312,179
1755,00	1314,000
1756,00	1309,505
1757,00	1298,355
1758,00	1319,404
1759,00	1310,188
1760,00	1309,335
1761,00	1309,790
1762,00	1306,377
1763,00	1292,155
1764,00	1309,050
1765,00	1312,862
1766,00	1304,613
1767,00	1307,457
1768,00	1310,814
1769,00	1308,595
1770,00	1313,146
1771,00	1301,086
1772,00	1313,829
1773,00	1301,200
1774,00	1312,350
1775,00	1296,194
1776,00	1311,838
1777,00	1308,823
1778,00	1313,431
1779,00	1308,709
1780,00	1309,562
1781,00	1309,847
1782,00	1317,413
1783,00	1305,239
1784,00	1309,164
1785,00	1310,416
1786,00	1313,089
1787,00	1314,511
1788,00	1310,302
1789,00	1316,673
1790,00	1322,874
1791,00	1310,359
1792,00	1313,374
1793,00	1301,484
1794,00	1312,862
1795,00	1309,050
1796,00	1314,853
1797,00	1311,041
1798,00	1310,643
1799,00	1315,991
1800,00	1309,847
1801,00	1308,538
1802,00	1305,808
1803,00	1306,718
1804,00	1310,814
1805,00	1300,289
1806,00	1300,574
1807,00	1313,374
1808,00	1304,272
1809,00	1311,781
1810,00	1314,398
1811,00	1301,200
1812,00	1324,069
1813,00	1295,682
1814,00	1313,317
1815,00	1307,571
1816,00	1312,008
1817,00	1305,353
1818,00	1319,290
1819,00	1303,930
1820,00	1310,928
1821,00	1306,547
1822,00	1311,895
1823,00	1303,361
1824,00	1314,113
1825,00	1307,571
1826,00	1310,529
1827,00	1306,945
1828,00	1309,448
1829,00	1308,083
1830,00	1313,772
1831,00	1306,775
1832,00	1315,820
1833,00	1296,933
1834,00	1318,437
1835,00	1306,775
1836,00	1316,275
1837,00	1307,685
1838,00	1308,254
1839,00	1317,640
1840,00	1301,825
1841,00	1311,098
1842,00	1309,676
1843,00	1304,727
1844,00	1317,811
1845,00	1297,843
1846,00	1312,520
1847,00	1298,810
1848,00	1305,353
1849,00	1308,140
1850,00	1310,416
1851,00	1313,658
1852,00	1310,871
1853,00	1309,448
1854,00	1309,733
1855,00	1305,808
1856,00	1304,101
1857,00	1305,011
1858,00	1311,098
1859,00	1307,856
1860,00	1308,197
1861,00	1293,406
1862,00	1318,380
1863,00	1309,960
1864,00	1315,820
1865,00	1302,736
1866,00	1318,664
1867,00	1308,823
1868,00	1319,290
1869,00	1302,508
1870,00	1300,745
1871,00	1297,047
1872,00	1313,658
1873,00	1302,337
1874,00	1319,916
1875,00	1310,984
1876,00	1309,960
1877,00	1301,086
1878,00	1310,700
1879,00	1308,709
1880,00	1320,485
1881,00	1321,338
1882,00	1315,365
1883,00	1303,305
1884,00	1320,769
1885,00	1306,718
1886,00	1313,089
1887,00	1297,900
1888,00	1312,065
1889,00	1299,834
1890,00	1311,553
1891,00	1304,784
1892,00	1309,107
1893,00	1300,062
1894,00	1312,862
1895,00	1314,284
1896,00	1307,514
1897,00	1306,433
1898,00	1307,400
1899,00	1307,173
1900,00	1306,889
1901,00	1299,379
1902,00	1323,443
1903,00	1303,987
1904,00	1313,089
1905,00	1306,433
1906,00	1308,936
1907,00	1311,781
1908,00	1316,503
1909,00	1304,727
1910,00	1309,278
1911,00	1301,655
1912,00	1310,074
1913,00	1308,368
1914,00	1310,472
1915,00	1307,571
1916,00	1313,772
1917,00	1293,406
1918,00	1306,832
1919,00	1317,299
1920,00	1318,209
1921,00	1305,011
1922,00	1308,481
1923,00	1298,867
1924,00	1312,464
1925,00	1300,403
1926,00	1315,251
1927,00	1304,784
1928,00	1309,392
1929,00	1296,080
1930,00	1307,230
1931,00	1303,873
1932,00	1309,505
1933,00	1298,469
1934,00	1317,811
1935,00	1312,577
1936,00	1314,967
1937,00	1303,930
1938,00	1310,472
1939,00	1295,283
1940,00	1300,517
1941,00	1297,900
1942,00	1307,514
1943,00	1303,475
1944,00	1314,568
1945,00	1297,218
1946,00	1315,422
1947,00	1306,263
1948,00	1322,191
1949,00	1303,134
1950,00	1312,919
1951,00	1298,981
1952,00	1306,889
1953,00	1311,212
1954,00	1313,203
1955,00	1301,996
1956,00	1302,679
1957,00	1303,305
1958,00	1320,428
1959,00	1316,104
1960,00	1306,490
1961,00	1299,436
1962,00	1297,673
1963,00	1298,810
1964,00	1304,272
1965,00	1304,954
1966,00	1314,113
1967,00	1309,164
1968,00	1315,535
1969,00	1297,900
1970,00	1300,631
1971,00	1278,331
1972,00	1301,996
1973,00	1304,556
1974,00	1312,236
1975,00	1300,005
1976,00	1302,565
1977,00	1299,152
1978,00	1315,479
1979,00	1299,493
1980,00	1308,595
1981,00	1301,712
1982,00	1297,161
1983,00	1311,952
1984,00	1318,607
1985,00	1309,847
1986,00	1308,766
1987,00	1305,978
1988,00	1316,275
1989,00	1293,008
1990,00	1302,508
1991,00	1309,221
1992,00	1306,718
1993,00	1308,595
1994,00	1307,230
1995,00	1304,158
1996,00	1303,646
1997,00	1302,394
1998,00	1301,598
1999,00	1313,601
2000,00	1304,954
2001,00	1298,754
2002,00	1304,670
2003,00	1296,421
2004,00	1311,326
2005,00	1301,370
2006,00	1309,335
2007,00	1295,625
2008,00	1304,044
2009,00	1304,329
2010,00	1316,616
2011,00	1311,269
2012,00	1316,787
2013,00	1301,313
2014,00	1313,089
2015,00	1307,457
2016,00	1304,670
2017,00	1301,769
2018,00	1308,026
2019,00	1322,760
2020,00	1313,488
2021,00	1299,664
2022,00	1307,059
2023,00	1305,637
2024,00	1310,586
2025,00	1306,320
2026,00	1311,098
2027,00	1294,714
2028,00	1304,101
2029,00	1308,652
2030,00	1304,101
2031,00	1302,508
2032,00	1308,709
2033,00	1305,921
2034,00	1305,125
2035,00	1302,793
2036,00	1310,586
2037,00	1304,954
2038,00	1305,865
2039,00	1313,601
2040,00	1312,236
2041,00	1305,409
2042,00	1308,823
2043,00	1303,248
2044,00	1300,176
2045,00	1292,382
2046,00	1309,733
2047,00	1289,822
2048,00	1305,865
2049,00	1300,972
2050,00	1305,239
2051,00	1309,164
2052,00	1316,332
2053,00	1307,912
2054,00	1303,077
2055,00	1291,643
2056,00	1310,131
2057,00	1312,236
2058,00	1312,862
2059,00	1297,161
2060,00	1301,882
2061,00	1286,124
2062,00	1300,460
2063,00	1305,580
2064,00	1313,715
2065,00	1308,368
2066,00	1306,718
2067,00	1288,571
2068,00	1303,646
2069,00	1293,804
2070,00	1309,448
2071,00	1307,799
2072,00	1304,044
2073,00	1302,565
2074,00	1301,882
2075,00	1308,766
2076,00	1318,323
2077,00	1307,173
2078,00	1310,302
2079,00	1311,610
2080,00	1310,416
2081,00	1300,176
2082,00	1314,739
2083,00	1302,167
2084,00	1304,385
2085,00	1309,221
2086,00	1309,392
2087,00	1302,963
2088,00	1309,733
2089,00	1301,712
2090,00	1302,736
2091,00	1299,721
2092,00	1313,431
2093,00	1308,254
2094,00	1312,976
2095,00	1313,943
2096,00	1307,742
2097,00	1305,353
2098,00	1308,254
2099,00	1304,613
2100,00	1307,514
2101,00	1299,322
2102,00	1299,379
2103,00	1305,353
2104,00	1307,685
2105,00	1295,625
2106,00	1312,862
2107,00	1306,889
2108,00	1321,054
2109,00	1297,161
2110,00	1313,772
2111,00	1307,002
2112,00	1309,107
2113,00	1302,736
2114,00	1306,661
2115,00	1305,353
2116,00	1304,385
2117,00	1306,433
2118,00	1311,269
2119,00	1295,170
2120,00	1302,508
2121,00	1294,487
2122,00	1300,574
2123,00	1305,182
2124,00	1310,472
2125,00	1302,224
2126,00	1304,841
2127,00	1295,056
2128,00	1307,685
2129,00	1303,134
2130,00	1304,044
2131,00	1299,493
2132,00	1301,541
2133,00	1310,814
2134,00	1304,897
2135,00	1306,889
2136,00	1313,374
2137,00	1294,202
2138,00	1311,383
2139,00	1297,730
2140,00	1309,448
2141,00	1308,766
2142,00	1311,724
2143,00	1301,598
2144,00	1298,526
2145,00	1306,832
2146,00	1319,290
2147,00	1307,116
2148,00	1304,442
2149,00	1301,598
2150,00	1302,679
2151,00	1310,245
2152,00	1309,107
2153,00	1308,652
2154,00	1314,113
2155,00	1308,652
2156,00	1306,718
2157,00	1296,819
2158,00	1309,505
2159,00	1301,313
2160,00	1309,050
2161,00	1309,050
2162,00	1305,978
2163,00	1300,915
2164,00	1312,122
2165,00	1300,176
2166,00	1307,059
2167,00	1301,143
2168,00	1310,643
2169,00	1299,095
2170,00	1311,895
2171,00	1298,754
2172,00	1308,936
2173,00	1296,250
2174,00	1320,200
2175,00	1306,035
2176,00	1308,254
2177,00	1301,370
2178,00	1308,140
2179,00	1296,194
2180,00	1297,900
2181,00	1299,209
2182,00	1308,254
2183,00	1311,041
2184,00	1306,433
2185,00	1298,810
2186,00	1305,865
2187,00	1303,532
2188,00	1298,355
2189,00	1290,675
2190,00	1303,646
2191,00	1301,882
2192,00	1310,700
2193,00	1301,200
2194,00	1305,921
2195,00	1300,801
2196,00	1309,619
2197,00	1305,637
2198,00	1315,479
2199,00	1307,571
2200,00	1296,819
2201,00	1300,289
2202,00	1311,269
2203,00	1294,487
2204,00	1317,413
2205,00	1311,724
2206,00	1305,068
2207,00	1292,894
2208,00	1306,149
2209,00	1303,305
2210,00	1310,700
2211,00	1303,191
2212,00	1308,823
2213,00	1311,895
2214,00	1301,257
2215,00	1307,059
2216,00	1308,083
2217,00	1298,355
2218,00	1302,053
2219,00	1303,248
2220,00	1313,488
2221,00	1307,173
2222,00	1301,882
2223,00	1310,814
2224,00	1313,431
2225,00	1292,439
2226,00	1304,101
2227,00	1292,041
2228,00	1315,080
2229,00	1297,843
2230,00	1312,464
2231,00	1299,038
2232,00	1302,337
2233,00	1298,128
2234,00	1300,460
2235,00	1296,421
2236,00	1308,766
2237,00	1297,047
2238,00	1305,978
2239,00	1306,490
2240,00	1306,035
2241,00	1298,355
2242,00	1296,706
2243,00	1298,014
2244,00	1317,470
2245,00	1299,607
2246,00	1324,638
2247,00	1306,945
2248,00	1306,092
2249,00	1298,583
2250,00	1309,448
2251,00	1298,185
2252,00	1315,820
2253,00	1297,388
2254,00	1309,335
2255,00	1301,769
2256,00	1295,738
2257,00	1302,963
2258,00	1313,544
2259,00	1300,631
2260,00	1314,853
2261,00	1297,900
2262,00	1299,436
2263,00	1298,298
2264,00	1311,098
2265,00	1295,909
2266,00	1297,616
2267,00	1304,272
2268,00	1319,802
2269,00	1293,520
2270,00	1307,856
2271,00	1307,514
2272,00	1301,313
2273,00	1294,259
2274,00	1305,182
2275,00	1302,565
2276,00	1307,457
2277,00	1292,723
2278,00	1301,313
2279,00	1307,742
2280,00	1314,511
2281,00	1299,436
2282,00	1305,978
2283,00	1307,173
2284,00	1304,897
2285,00	1301,825
2286,00	1305,296
2287,00	1292,155
2288,00	1294,544
2289,00	1304,329
2290,00	1311,952
2291,00	1307,628
2292,00	1312,634
2293,00	1304,272
2294,00	1314,113
2295,00	1289,822
2296,00	1302,337
2297,00	1300,517
2298,00	1315,706
2299,00	1299,664
2300,00	1310,017
2301,00	1297,786
2302,00	1310,643
2303,00	1284,532
2304,00	1311,667
2305,00	1302,849
2306,00	1302,337
2307,00	1298,242
2308,00	1299,948
2309,00	1305,182
2310,00	1313,544
2311,00	1286,352
2312,00	1304,897
2313,00	1313,089
2314,00	1307,287
2315,00	1298,071
2316,00	1317,356
2317,00	1297,445
2318,00	1309,050
2319,00	1302,508
2320,00	1295,283
2321,00	1297,616
2322,00	1322,703
2323,00	1318,551
2324,00	1303,475
2325,00	1303,191
2326,00	1297,616
2327,00	1305,694
2328,00	1307,799
2329,00	1295,170
2330,00	1304,841
2331,00	1305,125
2332,00	1311,610
2333,00	1301,825
2334,00	1315,535
2335,00	1302,110
2336,00	1307,799
2337,00	1297,616
2338,00	1312,862
2339,00	1297,445
2340,00	1305,637
2341,00	1295,966
2342,00	1304,841
2343,00	1305,694
2344,00	1312,691
2345,00	1306,433
2346,00	1311,041
2347,00	1302,281
2348,00	1304,215
2349,00	1311,724
2350,00	1312,464
2351,00	1298,981
2352,00	1309,676
2353,00	1296,421
2354,00	1304,272
2355,00	1313,772
2356,00	1305,865
2357,00	1301,484
2358,00	1308,595
2359,00	1305,125
2360,00	1305,409
2361,00	1304,613
2362,00	1309,505
2363,00	1307,742
2364,00	1296,649
2365,00	1306,832
2366,00	1309,676
2367,00	1293,918
2368,00	1309,107
2369,00	1308,709
2370,00	1305,751
2371,00	1298,469
2372,00	1296,250
2373,00	1314,511
2374,00	1312,520
2375,00	1302,793
2376,00	1308,083
2377,00	1301,427
2378,00	1308,481
2379,00	1298,640
2380,00	1307,912
2381,00	1310,131
2382,00	1308,709
2383,00	1291,643
2384,00	1314,967
2385,00	1296,876
2386,00	1305,580
2387,00	1298,754
2388,00	1308,311
2389,00	1303,760
2390,00	1317,242
2391,00	1292,041
2392,00	1301,427
2393,00	1306,433
2394,00	1309,562
2395,00	1303,305
2396,00	1305,409
2397,00	1289,367
2398,00	1293,804
2399,00	1299,152
2400,00	1313,658
2401,00	1303,418
2402,00	1307,571
2403,00	1303,817
2404,00	1295,795
2405,00	1290,505
2406,00	1309,107
2407,00	1295,170
2408,00	1312,520
2409,00	1304,158
2410,00	1308,652
2411,00	1293,349
2412,00	1303,475
2413,00	1294,202
2414,00	1311,041
2415,00	1294,032
2416,00	1297,616
2417,00	1294,885
2418,00	1298,981
2419,00	1305,865
2420,00	1306,377
2421,00	1290,619
2422,00	1312,008
2423,00	1298,242
2424,00	1299,607
2425,00	1301,370
2426,00	1315,137
2427,00	1303,361
2428,00	1304,897
2429,00	1289,651
2430,00	1300,460
2431,00	1298,640
2432,00	1313,886
2433,00	1304,613
2434,00	1308,254
2435,00	1297,559
2436,00	1307,344
2437,00	1303,475
2438,00	1304,442
2439,00	1305,580
2440,00	1303,248
2441,00	1304,044
2442,00	1314,113
2443,00	1292,155
2444,00	1311,155
2445,00	1299,721
2446,00	1308,652
2447,00	1304,442
2448,00	1304,499
2449,00	1298,867
2450,00	1300,972
2451,00	1292,041
2452,00	1307,002
2453,00	1298,583
2454,00	1314,455
2455,00	1299,436
2456,00	1313,431
2457,00	1313,829
2458,00	1300,346
2459,00	1306,661
2460,00	1302,053
2461,00	1299,379
2462,00	1303,930
2463,00	1302,451
2464,00	1297,786
2465,00	1305,296
2466,00	1304,784
2467,00	1304,670
2468,00	1314,113
2469,00	1299,778
2470,00	1310,188
2471,00	1295,852
2472,00	1305,978
2473,00	1296,023
2474,00	1310,245
2475,00	1311,098
2476,00	1313,943
2477,00	1304,613
2478,00	1311,781
2479,00	1290,277
2480,00	1304,044
2481,00	1301,882
2482,00	1301,143
2483,00	1309,904
2484,00	1306,661
2485,00	1294,771
2486,00	1309,392
2487,00	1300,858
2488,00	1302,906
2489,00	1311,781
2490,00	1309,221
2491,00	1299,266
2492,00	1307,685
2493,00	1302,565
2494,00	1294,430
2495,00	1303,305
2496,00	1309,392
2497,00	1296,307
2498,00	1300,346
2499,00	1310,757
2500,00	1300,688
2501,00	1307,059
2502,00	1303,020
2503,00	1301,996
2504,00	1307,344
2505,00	1302,167
2506,00	1303,987
2507,00	1300,403
2508,00	1304,727
2509,00	1310,245
2510,00	1299,550
2511,00	1299,834
2512,00	1305,580
2513,00	1293,861
2514,00	1295,056
2515,00	1304,727
2516,00	1293,178
2517,00	1300,403
2518,00	1304,897
2519,00	1297,161
2520,00	1301,427
2521,00	1301,143
2522,00	1299,436
2523,00	1314,910
2524,00	1306,945
2525,00	1295,511
2526,00	1298,185
2527,00	1301,939
2528,00	1303,305
2529,00	1298,754
2530,00	1308,311
2531,00	1302,110
2532,00	1312,691
2533,00	1305,694
2534,00	1292,666
2535,00	1302,053
2536,00	1309,676
2537,00	1303,760
2538,00	1306,263
2539,00	1297,218
2540,00	1299,834
2541,00	1309,676
2542,00	1293,520
2543,00	1298,412
2544,00	1311,098
2545,00	1296,194
2546,00	1303,020
2547,00	1295,625
2548,00	1304,442
2549,00	1292,211
2550,00	1301,313
2551,00	1301,655
2552,00	1299,607
2553,00	1288,684
2554,00	1305,580
2555,00	1290,505
2556,00	1306,604
2557,00	1298,412
2558,00	1302,565
2559,00	1283,223
2560,00	1313,203
2561,00	1289,367
2562,00	1305,808
2563,00	1303,760
2564,00	1306,547
2565,00	1304,158
2566,00	1306,775
2567,00	1294,202
2568,00	1305,068
2569,00	1296,194
2570,00	1302,394
2571,00	1300,801
2572,00	1311,269
2573,00	1302,110
2574,00	1320,257
2575,00	1302,394
2576,00	1314,967
2577,00	1290,107
2578,00	1297,559
2579,00	1299,891
2580,00	1303,760
2581,00	1295,795
2582,00	1295,056
2583,00	1293,178
2584,00	1304,158
2585,00	1304,556
2586,00	1300,119
2587,00	1304,727
2588,00	1305,808
2589,00	1299,038
2590,00	1296,876
2591,00	1301,598
2592,00	1305,808
2593,00	1299,834
2594,00	1300,005
2595,00	1300,233
2596,00	1305,182
2597,00	1298,583
2598,00	1300,745
2599,00	1294,202
2600,00	1304,442
2601,00	1297,331
2602,00	1295,738
2603,00	1301,996
2604,00	1301,484
2605,00	1309,107
2606,00	1304,158
2607,00	1296,762
2608,00	1295,226
2609,00	1295,511
2610,00	1305,353
2611,00	1293,008
2612,00	1293,008
2613,00	1297,843
2614,00	1299,038
2615,00	1299,777
2616,00	1305,921
2617,00	1303,703
2618,00	1308,709
2619,00	1302,736
2620,00	1299,607
2621,00	1300,972
2622,00	1303,475
2623,00	1296,762
2624,00	1307,116
2625,00	1300,062
2626,00	1302,849
2627,00	1292,155
2628,00	1301,939
2629,00	1283,963
2630,00	1297,161
2631,00	1298,697
2632,00	1312,520
2633,00	1302,508
2634,00	1302,451
2635,00	1298,640
2636,00	1295,568
2637,00	1288,059
2638,00	1307,969
2639,00	1295,170
2640,00	1296,933
2641,00	1306,433
2642,00	1305,921
2643,00	1310,245
2644,00	1313,886
2645,00	1303,589
2646,00	1308,595
2647,00	1306,490
2648,00	1298,526
2649,00	1295,966
2650,00	1311,155
2651,00	1308,083
2652,00	1296,421
2653,00	1302,394
2654,00	1305,523
2655,00	1297,786
2656,00	1303,134
2657,00	1301,029
2658,00	1311,838
2659,00	1295,454
2660,00	1297,104
2661,00	1303,532
2662,00	1304,897
2663,00	1298,924
2664,00	1298,014
2665,00	1295,226
2666,00	1305,751
2667,00	1286,067
2668,00	1303,361
2669,00	1296,023
2670,00	1303,134
2671,00	1312,179
2672,00	1309,562
2673,00	1299,721
2674,00	1299,891
2675,00	1306,775
2676,00	1301,257
2677,00	1298,071
2678,00	1295,340
2679,00	1299,664
2680,00	1303,817
2681,00	1300,858
2682,00	1299,607
2683,00	1305,296
2684,00	1306,320
2685,00	1292,268
2686,00	1302,224
2687,00	1300,517
2688,00	1302,793
2689,00	1297,730
2690,00	1301,598
2691,00	1289,765
2692,00	1309,733
2693,00	1309,904
2694,00	1303,817
2695,00	1303,248
2696,00	1307,173
2697,00	1294,601
2698,00	1312,179
2699,00	1298,128
2700,00	1293,235
2701,00	1293,577
2702,00	1299,322
2703,00	1287,376
2704,00	1300,517
2705,00	1294,828
2706,00	1300,062
2707,00	1303,760
2708,00	1320,428
2709,00	1299,664
2710,00	1306,035
2711,00	1307,059
2712,00	1300,972
2713,00	1289,310
2714,00	1296,307
2715,00	1291,358
2716,00	1311,895
2717,00	1294,032
2718,00	1321,907
2719,00	1295,852
2720,00	1304,670
2721,00	1293,463
2722,00	1304,499
2723,00	1300,119
2724,00	1300,176
2725,00	1301,655
2726,00	1306,320
2727,00	1301,712
2728,00	1306,035
2729,00	1295,397
2730,00	1301,882
2731,00	1298,412
2732,00	1307,059
2733,00	1288,798
2734,00	1304,670
2735,00	1307,742
2736,00	1303,191
2737,00	1298,526
2738,00	1298,697
2739,00	1300,346
2740,00	1291,586
2741,00	1297,388
2742,00	1307,002
2743,00	1298,810
2744,00	1301,996
2745,00	1296,023
2746,00	1310,984
2747,00	1299,493
2748,00	1301,882
2749,00	1299,607
2750,00	1302,167
2751,00	1304,556
2752,00	1310,017
2753,00	1297,559
2754,00	1300,631
2755,00	1300,915
2756,00	1301,370
2757,00	1300,346
2758,00	1303,873
2759,00	1304,329
2760,00	1312,236
2761,00	1302,167
2762,00	1303,305
2763,00	1295,283
2764,00	1299,607
2765,00	1294,373
2766,00	1300,233
2767,00	1289,083
2768,00	1294,601
2769,00	1294,942
2770,00	1306,320
2771,00	1306,832
2772,00	1295,454
2773,00	1303,589
2774,00	1296,307
2775,00	1287,319
2776,00	1306,149
2777,00	1293,747
2778,00	1305,011
2779,00	1300,574
2780,00	1303,077
2781,00	1300,745
2782,00	1296,023
2783,00	1299,721
2784,00	1299,436
2785,00	1306,263
2786,00	1307,059
2787,00	1303,646
2788,00	1299,322
2789,00	1295,738
2790,00	1308,368
2791,00	1304,613
2792,00	1298,867
2793,00	1302,679
2794,00	1305,353
2795,00	1304,101
2796,00	1299,607
2797,00	1298,583
2798,00	1316,559
2799,00	1310,302
2800,00	1301,598
2801,00	1289,936
2802,00	1305,694
2803,00	1302,451
2804,00	1305,808
2805,00	1299,891
2806,00	1306,035
2807,00	1292,268
2808,00	1306,035
2809,00	1299,322
2810,00	1304,442
2811,00	1304,044
2812,00	1297,047
2813,00	1297,445
2814,00	1309,335
2815,00	1298,355
2816,00	1309,107
2817,00	1296,137
2818,00	1297,730
2819,00	1302,281
2820,00	1302,906
2821,00	1304,044
2822,00	1301,370
2823,00	1299,607
2824,00	1313,658
2825,00	1307,230
2826,00	1300,005
2827,00	1295,852
2828,00	1304,670
2829,00	1304,556
2830,00	1299,322
2831,00	1301,200
2832,00	1302,337
2833,00	1291,187
2834,00	1304,670
2835,00	1300,346
2836,00	1295,568
2837,00	1299,778
2838,00	1313,089
2839,00	1300,062
2840,00	1307,059
2841,00	1298,981
2842,00	1300,062
2843,00	1300,176
2844,00	1305,694
2845,00	1291,415
2846,00	1299,607
2847,00	1295,511
2848,00	1296,250
2849,00	1307,571
2850,00	1305,125
2851,00	1296,364
2852,00	1300,005
2853,00	1302,053
2854,00	1302,337
2855,00	1297,616
2856,00	1303,817
2857,00	1301,655
2858,00	1307,230
2859,00	1295,397
2860,00	1297,730
2861,00	1293,975
2862,00	1311,269
2863,00	1300,460
2864,00	1299,834
2865,00	1288,741
2866,00	1304,556
2867,00	1296,250
2868,00	1306,832
2869,00	1307,571
2870,00	1299,436
2871,00	1305,694
2872,00	1305,125
2873,00	1300,574
2874,00	1297,274
2875,00	1303,418
2876,00	1299,322
2877,00	1299,152
2878,00	1301,313
2879,00	1305,353
2880,00	1293,975
2881,00	1293,747
2882,00	1303,248
2883,00	1298,754
2884,00	1298,298
2885,00	1296,706
2886,00	1310,472
2887,00	1297,786
2888,00	1303,248
2889,00	1306,149
2890,00	1302,110
2891,00	1295,056
2892,00	1302,565
2893,00	1305,580
2894,00	1305,978
2895,00	1302,849
2896,00	1311,326
2897,00	1296,990
2898,00	1300,062
2899,00	1294,544
2900,00	1302,053
2901,00	1295,113
2902,00	1298,981
2903,00	1296,819
2904,00	1295,226
2905,00	1299,493
2906,00	1291,643
2907,00	1300,631
2908,00	1307,116
2909,00	1298,526
2910,00	1294,373
2911,00	1294,771
2912,00	1299,209
2913,00	1297,218
2914,00	1301,541
2915,00	1301,143
2916,00	1305,182
2917,00	1301,086
2918,00	1300,915
2919,00	1301,769
2920,00	1301,086
2921,00	1302,963
2922,00	1307,173
2923,00	1290,334
2924,00	1308,652
2925,00	1293,065
2926,00	1294,885
2927,00	1309,562
2928,00	1294,373
2929,00	1303,987
2930,00	1303,930
2931,00	1291,131
2932,00	1304,841
2933,00	1295,795
2934,00	1309,619
2935,00	1304,784
2936,00	1297,502
2937,00	1291,301
2938,00	1300,631
2939,00	1315,308
2940,00	1309,619
2941,00	1294,544
2942,00	1303,248
2943,00	1298,185
2944,00	1302,963
2945,00	1306,718
2946,00	1298,469
2947,00	1306,945
2948,00	1306,661
2949,00	1298,128
2950,00	1312,634
2951,00	1304,954
2952,00	1306,377
2953,00	1296,023
2954,00	1309,619
2955,00	1305,921
2956,00	1300,233
2957,00	1307,173
2958,00	1304,727
2959,00	1302,736
2960,00	1301,541
2961,00	1298,071
2962,00	1303,191
2963,00	1299,948
2964,00	1303,475
2965,00	1298,014
2966,00	1295,795
2967,00	1299,493
2968,00	1300,403
2969,00	1288,059
2970,00	1288,969
2971,00	1292,211
2972,00	1301,143
2973,00	1296,023
2974,00	1302,736
2975,00	1303,248
2976,00	1303,703
2977,00	1294,316
2978,00	1299,834
2979,00	1296,307
2980,00	1315,991
2981,00	1285,555
2982,00	1311,838
2983,00	1286,238
2984,00	1297,786
2985,00	1293,918
2986,00	1298,810
2987,00	1299,038
2988,00	1304,897
2989,00	1297,104
2990,00	1305,694
2991,00	1287,717
2992,00	1292,666
2993,00	1283,792
2994,00	1301,143
2995,00	1296,080
2996,00	1302,337
2997,00	1296,137
2998,00	1294,885
2999,00	1296,194
3000,00	1300,517
3001,00	1302,167
3002,00	1300,688
3003,00	1295,738
3004,00	1309,107
3005,00	1297,218
3006,00	1303,191
3007,00	1299,038
3008,00	1303,589
3009,00	1294,259
3010,00	1310,074
3011,00	1292,610
3012,00	1306,035
3013,00	1308,368
3014,00	1287,205
3015,00	1289,196
3016,00	1296,478
3017,00	1297,957
3018,00	1306,945
3019,00	1308,424
3020,00	1287,490
3021,00	1290,277
3022,00	1304,329
3023,00	1293,122
3024,00	1299,834
3025,00	1310,529
3026,00	1294,544
3027,00	1302,508
3028,00	1305,239
3029,00	1297,786
3030,00	1288,798
3031,00	1307,457
3032,00	1303,817
3033,00	1297,786
3034,00	1297,900
3035,00	1299,379
3036,00	1317,413
3037,00	1289,822
3038,00	1302,053
3039,00	1292,439
3040,00	1304,385
3041,00	1311,326
3042,00	1295,340
3043,00	1297,388
3044,00	1313,374
3045,00	1295,283
3046,00	1294,146
3047,00	1298,981
3048,00	1307,116
3049,00	1300,745
3050,00	1311,781
3051,00	1297,388
3052,00	1300,688
3053,00	1296,023
3054,00	1292,610
3055,00	1294,942
3056,00	1309,847
3057,00	1298,298
3058,00	1301,029
3059,00	1284,930
3060,00	1290,505
3061,00	1293,463
3062,00	1303,646
3063,00	1290,163
3064,00	1299,664
3065,00	1299,607
3066,00	1303,077
3067,00	1286,807
3068,00	1300,062
3069,00	1291,131
3070,00	1296,194
3071,00	1297,786
3072,00	1298,640
3073,00	1295,966
3074,00	1299,038
3075,00	1293,122
3076,00	1300,176
3077,00	1294,089
3078,00	1304,670
3079,00	1282,597
3080,00	1302,508
3081,00	1297,331
3082,00	1296,535
3083,00	1298,355
3084,00	1311,724
3085,00	1300,005
3086,00	1289,196
3087,00	1293,235
3088,00	1290,277
3089,00	1295,682
3090,00	1302,906
3091,00	1299,550
3092,00	1298,355
3093,00	1293,463
3094,00	1306,263
3095,00	1296,137
3096,00	1301,939
3097,00	1302,110
3098,00	1301,769
3099,00	1296,876
3100,00	1305,466
3101,00	1287,091
3102,00	1296,023
3103,00	1293,690
3104,00	1311,667
3105,00	1302,451
3106,00	1298,754
3107,00	1298,810
3108,00	1309,448
3109,00	1297,843
3110,00	1305,523
3111,00	1295,795
3112,00	1302,053
3113,00	1307,116
3114,00	1298,810
3115,00	1286,466
3116,00	1301,257
3117,00	1295,170
3118,00	1305,011
3119,00	1297,502
3120,00	1309,733
3121,00	1296,023
3122,00	1309,221
3123,00	1294,771
3124,00	1303,817
3125,00	1307,799
3126,00	1302,224
3127,00	1295,966
3128,00	1297,616
3129,00	1296,478
3130,00	1291,699
3131,00	1302,167
3132,00	1304,044
3133,00	1300,631
3134,00	1309,847
3135,00	1298,810
3136,00	1295,909
3137,00	1304,442
3138,00	1305,409
3139,00	1302,736
3140,00	1303,589
3141,00	1305,068
3142,00	1300,517
3143,00	1286,409
3144,00	1297,673
3145,00	1288,343
3146,00	1308,197
3147,00	1296,194
3148,00	1295,056
3149,00	1305,125
3150,00	1302,394
3151,00	1300,346
3152,00	1300,005
3153,00	1303,077
3154,00	1302,224
3155,00	1302,281
3156,00	1299,379
3157,00	1298,355
3158,00	1297,445
3159,00	1301,257
3160,00	1300,574
3161,00	1301,200
3162,00	1308,709
3163,00	1289,026
3164,00	1301,143
3165,00	1302,394
3166,00	1304,727
3167,00	1304,556
3168,00	1296,478
3169,00	1303,873
3170,00	1307,059
3171,00	1300,005
3172,00	1306,035
3173,00	1308,311
3174,00	1296,421
3175,00	1289,083
3176,00	1300,346
3177,00	1304,727
3178,00	1303,134
3179,00	1295,682
3180,00	1299,209
3181,00	1296,478
3182,00	1293,406
3183,00	1296,535
3184,00	1298,640
3185,00	1292,666
3186,00	1300,574
3187,00	1299,379
3188,00	1303,020
3189,00	1295,397
3190,00	1302,565
3191,00	1296,080
3192,00	1297,047
3193,00	1297,047
3194,00	1306,433
3195,00	1292,211
3196,00	1304,385
3197,00	1294,316
3198,00	1298,754
3199,00	1284,247
3200,00	1308,140
3201,00	1308,823
3202,00	1291,017
3203,00	1294,089
3204,00	1301,825
3205,00	1293,122
3206,00	1304,841
3207,00	1292,155
3208,00	1298,583
3209,00	1292,439
3210,00	1304,841
3211,00	1296,307
3212,00	1303,077
3213,00	1304,272
3214,00	1292,951
3215,00	1294,487
3216,00	1307,287
3217,00	1290,903
3218,00	1290,050
3219,00	1297,616
3220,00	1304,613
3221,00	1296,762
3222,00	1296,023
3223,00	1293,690
3224,00	1300,915
3225,00	1286,295
3226,00	1290,391
3227,00	1300,460
3228,00	1298,810
3229,00	1297,730
3230,00	1298,697
3231,00	1295,568
3232,00	1297,218
3233,00	1308,083
3234,00	1305,011
3235,00	1303,646
3236,00	1298,810
3237,00	1296,649
3238,00	1303,020
3239,00	1298,924
3240,00	1305,296
3241,00	1293,577
3242,00	1306,661
3243,00	1304,499
3244,00	1298,526
3245,00	1299,778
3246,00	1296,478
3247,00	1289,879
3248,00	1300,119
3249,00	1303,134
3250,00	1302,622
3251,00	1297,047
3252,00	1311,212
3253,00	1298,526
3254,00	1300,517
3255,00	1300,972
3256,00	1310,188
3257,00	1286,124
3258,00	1296,933
3259,00	1306,889
3260,00	1300,631
3261,00	1291,472
3262,00	1295,625
3263,00	1296,307
3264,00	1303,305
3265,00	1299,266
3266,00	1300,745
3267,00	1295,397
3268,00	1304,101
3269,00	1303,817
3270,00	1299,550
3271,00	1300,517
3272,00	1293,804
3273,00	1302,736
3274,00	1302,849
3275,00	1294,032
3276,00	1310,757
3277,00	1289,879
3278,00	1300,517
3279,00	1299,834
3280,00	1304,556
3281,00	1292,951
3282,00	1306,263
3283,00	1301,655
3284,00	1301,370
3285,00	1290,277
3286,00	1305,182
3287,00	1294,089
3288,00	1308,083
3289,00	1288,059
3290,00	1311,269
3291,00	1306,889
3292,00	1294,828
3293,00	1293,349
3294,00	1300,233
3295,00	1299,607
3296,00	1306,718
3297,00	1284,532
3298,00	1299,778
3299,00	1290,846
3300,00	1304,841
3301,00	1288,798
3302,00	1295,568
3303,00	1300,176
3304,00	1302,167
3305,00	1294,089
3306,00	1306,433
3307,00	1286,693
3308,00	1296,535
3309,00	1305,466
3310,00	1291,472
3311,00	1289,936
3312,00	1295,113
3313,00	1286,124
3314,00	1305,865
3315,00	1308,880
3316,00	1299,038
3317,00	1303,532
3318,00	1309,335
3319,00	1302,224
3320,00	1303,532
3321,00	1289,367
3322,00	1304,784
3323,00	1294,544
3324,00	1301,427
3325,00	1298,583
3326,00	1296,592
3327,00	1295,568
3328,00	1304,841
3329,00	1290,334
3330,00	1307,400
3331,00	1286,067
3332,00	1308,880
3333,00	1301,598
3334,00	1300,346
3335,00	1288,002
3336,00	1305,580
3337,00	1287,888
3338,00	1296,364
3339,00	1295,738
3340,00	1297,274
3341,00	1290,562
3342,00	1299,152
3343,00	1299,834
3344,00	1300,915
3345,00	1300,403
3346,00	1301,029
3347,00	1296,819
3348,00	1299,778
3349,00	1302,394
3350,00	1299,721
3351,00	1304,954
3352,00	1304,784
3353,00	1301,427
3354,00	1300,972
3355,00	1293,292
3356,00	1291,358
3357,00	1297,843
3358,00	1300,289
3359,00	1287,888
3360,00	1304,727
3361,00	1281,573
3362,00	1299,948
3363,00	1289,481
3364,00	1303,930
3365,00	1301,313
3366,00	1309,676
3367,00	1301,143
3368,00	1298,355
3369,00	1298,583
3370,00	1301,939
3371,00	1298,697
3372,00	1304,954
3373,00	1294,771
3374,00	1301,257
3375,00	1295,283
3376,00	1311,098
3377,00	1299,493
3378,00	1295,340
3379,00	1288,571
3380,00	1300,745
3381,00	1307,571
3382,00	1306,718
3383,00	1293,349
3384,00	1304,499
3385,00	1293,690
3386,00	1292,325
3387,00	1300,745
3388,00	1309,562
3389,00	1293,634
3390,00	1290,448
3391,00	1296,250
3392,00	1286,067
3393,00	1298,185
3394,00	1312,065
3395,00	1306,775
3396,00	1307,571
3397,00	1299,834
3398,00	1296,194
3399,00	1310,245
3400,00	1296,649
3401,00	1299,152
3402,00	1294,885
3403,00	1297,104
3404,00	1300,688
3405,00	1294,544
3406,00	1315,820
3407,00	1301,200
3408,00	1298,355
3409,00	1299,436
3410,00	1292,155
3411,00	1296,137
3412,00	1295,909
3413,00	1300,858
3414,00	1295,852
3415,00	1297,445
3416,00	1303,418
3417,00	1305,808
3418,00	1296,706
3419,00	1293,178
3420,00	1302,110
3421,00	1296,478
3422,00	1291,301
3423,00	1293,520
3424,00	1305,921
3425,00	1298,867
3426,00	1307,400
3427,00	1289,822
3428,00	1292,325
3429,00	1299,891
3430,00	1306,661
3431,00	1295,454
3432,00	1294,601
3433,00	1298,242
3434,00	1303,077
3435,00	1300,460
3436,00	1299,550
3437,00	1293,690
3438,00	1310,586
3439,00	1294,828
3440,00	1306,661
3441,00	1291,301
3442,00	1302,793
3443,00	1297,730
3444,00	1301,541
3445,00	1290,448
3446,00	1294,373
3447,00	1295,966
3448,00	1307,457
3449,00	1283,849
3450,00	1299,550
3451,00	1296,137
3452,00	1311,269
3453,00	1296,649
3454,00	1301,143
3455,00	1290,391
3456,00	1304,499
3457,00	1299,038
3458,00	1300,517
3459,00	1292,496
3460,00	1299,721
3461,00	1295,738
3462,00	1294,601
3463,00	1301,370
3464,00	1304,158
3465,00	1298,355
3466,00	1304,613
3467,00	1284,076
3468,00	1298,810
3469,00	1288,741
3470,00	1303,305
3471,00	1289,765
3472,00	1304,727
3473,00	1294,885
3474,00	1304,044
3475,00	1289,765
3476,00	1296,364
3477,00	1302,793
3478,00	1301,598
3479,00	1298,640
3480,00	1303,134
3481,00	1299,948
3482,00	1294,714
3483,00	1292,211
3484,00	1301,882
3485,00	1304,272
3486,00	1300,972
3487,00	1298,981
3488,00	1298,924
3489,00	1299,266
3490,00	1303,134
3491,00	1301,939
3492,00	1296,194
3493,00	1303,703
3494,00	1299,778
3495,00	1293,975
3496,00	1305,865
3497,00	1289,993
3498,00	1294,885
3499,00	1296,876
3500,00	1306,206
3501,00	1301,598
3502,00	1299,607
3503,00	1296,080
3504,00	1294,714
3505,00	1293,975
3506,00	1308,197
3507,00	1297,559
3508,00	1299,322
3509,00	1306,377
3510,00	1302,679
3511,00	1290,448
3512,00	1287,774
3513,00	1291,699
3514,00	1309,392
3515,00	1302,224
3516,00	1294,999
3517,00	1295,738
3518,00	1304,044
3519,00	1284,133
3520,00	1308,481
3521,00	1300,403
3522,00	1300,574
3523,00	1296,478
3524,00	1311,212
3525,00	1298,071
3526,00	1304,158
3527,00	1293,918
3528,00	1300,631
3529,00	1294,828
3530,00	1308,936
3531,00	1303,134
3532,00	1299,266
3533,00	1299,152
3534,00	1301,484
3535,00	1287,547
3536,00	1307,002
3537,00	1295,795
3538,00	1305,239
3539,00	1306,945
3540,00	1302,167
3541,00	1300,005
3542,00	1310,984
3543,00	1296,194
3544,00	1301,257
3545,00	1308,595
3546,00	1306,092
3547,00	1293,804
3548,00	1302,736
3549,00	1285,612
3550,00	1297,673
3551,00	1294,885
3552,00	1315,763
3553,00	1300,688
3554,00	1302,679
3555,00	1297,104
3556,00	1299,379
3557,00	1300,403
3558,00	1295,454
3559,00	1306,263
3560,00	1306,149
3561,00	1290,448
3562,00	1309,164
3563,00	1293,349
3564,00	1301,143
3565,00	1290,675
3566,00	1302,679
3567,00	1296,478
3568,00	1298,981
3569,00	1300,346
3570,00	1307,969
3571,00	1296,421
3572,00	1300,631
3573,00	1297,218
3574,00	1296,080
3575,00	1305,409
3576,00	1303,589
3577,00	1295,283
3578,00	1297,274
3579,00	1299,607
3580,00	1296,023
3581,00	1305,466
3582,00	1294,771
3583,00	1287,148
3584,00	1311,667
3585,00	1296,250
3586,00	1314,000
3587,00	1298,754
3588,00	1308,026
3589,00	1294,089
3590,00	1292,268
3591,00	1301,655
3592,00	1300,801
3593,00	1300,233
3594,00	1296,535
3595,00	1289,083
3596,00	1298,810
3597,00	1295,568
3598,00	1308,026
3599,00	1291,074
3600,00	1300,460
3601,00	1293,463
3602,00	1301,484
3603,00	1296,876
3604,00	1303,703
3605,00	1291,244
3606,00	1304,897
3607,00	1305,637
3608,00	1308,652
3609,00	1286,636
3610,00	1305,182
3611,00	1288,627
3612,00	1316,218
3613,00	1310,643
3614,00	1297,843
3615,00	1295,226
3616,00	1303,760
3617,00	1298,298
3618,00	1300,346
3619,00	1306,604
3620,00	1309,278
3621,00	1299,322
3622,00	1306,433
3623,00	1291,472
3624,00	1294,146
3625,00	1290,505
3626,00	1302,053
3627,00	1290,505
3628,00	1298,924
3629,00	1300,005
3630,00	1304,556
3631,00	1300,233
3632,00	1306,832
3633,00	1282,484
3634,00	1296,706
3635,00	1290,846
3636,00	1307,116
3637,00	1304,897
3638,00	1290,505
3639,00	1299,095
3640,00	1305,751
3641,00	1296,933
3642,00	1294,714
3643,00	1293,349
3644,00	1303,305
3645,00	1302,167
3646,00	1304,158
3647,00	1294,032
>>>>>Finisci Dati dello Spettro<<<<<
